timestamp,tp9,af7,af8,tp10,aux1,aux2,aux3,aux4
0.000000,10.013053,10.836893,11.659783,12.480810,13.299135,14.114029,14.924897,15.731307
0.003906,10.342711,11.176055,12.008342,12.838661,13.643237,14.467225,15.287096,16.102424
0.007812,10.607619,11.445741,12.282486,13.116943,13.902434,14.729921,15.552976,16.371177
0.011719,10.783607,11.620216,12.454869,13.286654,14.046072,14.869733,15.688391,16.501629
0.015625,10.859158,11.687786,12.513692,13.335973,14.062438,14.875118,15.682080,16.482929
0.019531,10.836932,11.652362,12.464288,13.271840,13.960319,14.756882,15.547096,16.330611
0.023438,10.732761,11.532130,12.327418,13.117818,13.766356,14.544950,15.316900,16.081935
0.027344,10.572326,11.355631,12.134668,12.908724,13.518819,14.281190,15.037134,15.786487
0.031250,10.386178,11.156042,11.921921,12.683218,13.259238,14.010000,14.755086,15.494445
0.035156,10.204035,10.964796,11.722260,12.475947,13.023755,13.768848,14.509391,15.245429
0.039062,10.049474,10.805823,11.559775,12.310942,12.836139,13.580945,14.322424,15.060681
0.042969,9.935998,10.691540,11.445531,12.197646,12.703974,13.451694,14.197130,14.940411
0.046875,9.865215,10.621344,11.376494,12.130386,12.618793,13.369644,14.118935,14.866820
0.050781,9.827465,10.582899,11.337586,12.091319,12.560053,13.311586,14.062094,14.811805
0.054688,9.804712,10.555881,11.306372,12.056142,12.501917,13.250474,13.998766,14.747196
0.058594,9.775131,10.517395,11.259331,12.001209,12.421199,13.164139,13.908411,14.654701
0.062500,9.718443,10.447912,11.178325,11.910436,12.304567,13.042615,13.785036,14.532846
0.066406,9.620948,10.336485,11.055841,11.780383,12.153251,12.892230,13.640399,14.398992
0.070312,9.479239,10.184137,10.897851,11.622344,11.984108,12.735392,13.502256,14.285804
0.074219,9.301832,10.004702,10.723620,11.460913,11.826734,12.606050,13.408023,14.233020
0.078125,9.108380,9.822890,10.562469,11.329287,11.717216,12.541859,13.395383,14.276603
0.082031,8.926576,9.669947,10.448121,11.262309,11.689929,12.574886,13.492146,14.438103
0.085938,8.787313,9.577740,10.411800,11.288735,11.769237,12.723081,13.707916,14.717019
0.089844,8.719020,9.572445,10.475510,11.424436,11.963005,12.984575,14.029696,15.088272
0.093750,8.742248,9.669101,10.646920,11.668028,12.259454,13.336238,14.422637,15.505579
0.097656,8.865535,9.868124,10.916931,11.999935,12.628129,13.736946,14.835900,15.910097
0.101562,9.083370,10.154504,11.260496,12.385148,13.024871,14.134908,15.212346,16.242312
0.105469,9.376639,10.499879,11.640540,12.779153,13.399751,14.477460,15.499859,16.454359
0.109375,9.715510,10.867100,12.014249,13.135814,13.706284,14.721153,15.661680,16.519820
0.113281,10.064221,11.216426,12.340457,13.415595,13.909939,14.839882,15.683361,16.438644
0.117188,10.386897,11.512155,12.586670,13.592400,13.994131,14.829268,15.574776,16.236078
0.121094,10.653309,11.728428,12.734325,13.657644,13.962413,14.706340,15.366761,15.955922
0.125000,10.843520,11.853074,12.781252,13.620739,13.836483,14.504700,15.103298,15.649880
0.128906,10.950568,11.888813,12.740896,13.505957,13.650492,14.266324,14.831147,15.365658
0.132812,10.980717,11.851602,12.638503,13.346405,13.443003,14.031977,14.589466,15.136788
0.136719,10.951262,11.766515,12.505134,13.176475,13.248440,13.832477,14.401891,14.976616
0.140625,10.886355,11.662017,12.370771,13.024406,13.089947,13.682814,14.272913,14.877848
0.144531,10.811690,11.563814,12.257985,12.906604,12.975261,13.580451,14.189322,14.817556
0.148438,10.749077,11.489517,12.177494,12.824912,12.896450,13.508079,14.126191,14.766168
0.152344,10.711983,11.445223,12.126522,12.767402,12.833524,13.440078,14.055776,14.697947
0.156250,10.702901,11.424661,12.090282,12.712441,12.760983,13.351001,13.956972,14.600098
0.160156,10.713048,11.411092,12.046219,12.635083,12.655721,13.223954,13.822844,14.477997
0.164062,10.724452,11.381525,11.970093,12.514313,12.504368,13.056751,13.664231,14.355101
0.167969,10.714007,11.312393,11.842550,12.339467,12.308311,12.864266,13.508441,14.267466
0.171875,10.658696,11.185490,11.654742,12.114339,12.085124,12.676329,13.393258,14.254238
0.175781,10.540943,10.992933,11.411762,11.858005,11.866019,12.531572,13.357692,14.346573
0.179688,10.353047,10.740098,11.133087,11.602082,11.689788,12.468637,13.431747,14.557866
0.183594,10.099780,10.445897,10.849873,11.384973,11.594590,12.516799,13.627754,14.877916
0.187500,9.798636,10.140253,10.599615,11.244278,11.609386,12.688236,13.935480,15.272668
0.191406,9.477612,9.859269,10.419220,11.208996,11.746983,12.973810,14.322321,15.689781
0.195312,9.170925,9.638968,10.337918,11.293198,12.000275,13.343440,14.738683,16.068807
0.199219,8.913430,9.508854,10.371442,11.492550,12.342579,13.751082,15.127378,16.353602
0.203125,8.734784,9.486527,10.518712,11.784462,12.732067,14.143254,15.434915,16.503985
0.207031,8.654434,9.574423,10.761684,12.131873,13.119360,14.469224,15.622066,16.503858
0.210938,8.678375,9.759320,11.068443,12.489901,13.456674,14.690614,15.671273,16.363853
0.214844,8.798276,10.014703,11.398903,12.813981,13.706545,14.788257,15.589231,16.117921
0.218750,8.993128,10.305534,11.711976,13.067792,13.848261,14.764843,15.404085,15.814781
0.222656,9.233108,10.594491,11.972765,13.229346,13.880663,14.642814,15.158038,15.506413
0.226562,9.484908,10.848450,12.158340,13.293985,13.820766,14.458106,14.897181,15.236450
0.230469,9.717538,11.043973,12.260956,13.273736,13.698609,14.251252,14.661056,15.031336
0.234375,9.907494,11.170720,12.288115,13.193236,13.549571,14.057993,14.474441,14.896353
0.238281,10.042344,11.232188,12.259528,13.083193,13.405933,13.901580,14.343296,14.817343
0.242188,10.122071,11.243660,12.201681,12.972866,13.289644,13.788564,14.255732,14.767492
0.246094,10.157959,11.227840,12.141200,12.883241,13.207897,13.708981,14.187625,14.717234
0.250000,10.169273,11.209110,12.098454,12.822411,13.152526,13.640791,14.111325,14.644551
0.253906,10.178427,11.207601,12.082768,12.784180,13.103271,13.557415,14.005151,14.542858
0.257812,10.205597,11.234318,12.090284,12.750165,13.034125,13.436444,13.861186,14.424325
0.261719,10.263871,11.288324,12.104902,12.694911,12.921204,13.267326,13.689291,14.317660
0.265625,10.355885,11.356585,12.102130,12.592840,12.750278,13.056095,13.516243,14.260889
0.269531,10.472648,11.416510,12.054989,12.425461,12.522104,12.825872,13.380099,14.290936
0.273438,10.594789,11.440683,11.940712,12.187187,12.254282,12.612934,13.321119,14.432739
0.277344,10.696007,11.402839,11.746801,11.888395,11.979070,12.459175,13.371466,14.690747
0.281250,10.748088,11.283853,11.475093,11.554983,11.737575,12.402693,13.546219,15.045121
0.285156,10.726505,11.076520,11.142937,11.224426,11.571560,12.468687,13.837995,15.453782
0.289062,10.615536,10.788124,10.781158,10.939108,11.514655,12.662834,14.216584,15.859972
0.292969,10.411891,10.440240,10.429167,10.738313,11.584941,12.968732,14.633830,16.203619
0.296875,10.126140,10.065742,10.128157,10.650552,11.780573,13.350096,15.032711,16.433798
0.300781,9.781621,9.703585,9.913763,10.687871,12.079456,13.757278,15.358557,16.519312
0.304688,9.411019,9.392327,9.809641,10.843338,12.443075,14.136684,15.569825,16.454835
0.308594,9.051221,9.163643,9.823286,11.092267,12.823687,14.441008,15.645938,16.261190
0.312500,8.737397,9.037090,9.944905,11.396913,13.173316,14.637988,15.590424,15.979741
0.316406,8.497397,9.017106,10.149582,11.713660,13.452608,14.715768,15.428685,15.662359
0.320312,8.347498,9.092821,10.402265,12.001179,13.637644,14.683721,15.201036,15.359494
0.324219,8.290271,9.240690,10.664548,12.227852,13.723278,14.568653,14.952767,15.109289
0.328125,8.314948,9.429390,10.901848,12.376909,13.722355,14.407373,14.723665,14.930408
0.332031,8.400177,9.626001,11.089526,12.448262,13.661084,14.237450,14.539539,14.820215
0.335938,8.518617,9.802233,11.216713,12.456712,13.571712,14.088370,14.407735,14.758599
0.339844,8.642464,9.939471,11.287105,12.427015,13.484232,13.975173,14.317644,14.716247
0.343750,8.748849,10.031643,11.316627,12.386967,13.419064,13.896053,14.245928,14.665050
0.347656,8.824050,10.085381,11.328534,12.360092,13.382387,13.834405,14.165021,14.587816
0.351562,8.865742,10.117491,11.347024,12.359581,13.365196,13.764758,14.052654,14.484616
0.355469,8.882843,10.150271,11.390801,12.384860,13.346262,13.661065,13.899893,14.374045
0.359375,8.893023,10.205695,11.467961,12.421556,13.298284,13.505278,13.715553,14.288973
0.363281,8.918386,10.299669,11.573355,12.444878,13.195761,13.294028,13.525791,14.267849
0.367188,8.980178,10.437573,11.689009,12.425664,13.022706,13.041709,13.368837,14.343789
0.371094,9.093587,10.612034,11.787544,12.337748,12.778358,12.779096,13.286119,14.534307
0.375000,9.263683,10.803430,11.837899,12.164983,12.479475,12.547718,13.311906,14.834427
0.378906,9.483298,10.983056,11.812166,11.906338,12.158578,12.391215,13.464037,15.215088
0.382812,9.733327,11.118362,11.692075,11.577866,11.858447,12.345653,13.738053,15.627438
0.386719,9.985412,11.179217,11.473765,11.211041,11.623994,12.431060,14.106281,16.012127
0.390625,10.206541,11.143974,11.169789,10.847727,11.493306,12.646156,14.522194,16.311436
0.394531,10.364708,11.004108,10.807869,10.532794,11.489796,12.967584,14.929145,16.481341
0.398438,10.434582,10.766480,10.426629,10.305899,11.617219,13.353851,15.271490,16.500616
0.402344,10.402095,10.452765,10.069093,10.194150,11.858663,13.753165,15.505534,16.374790
0.406250,10.267108,10.096112,9.775263,10.207188,12.179750,14.113415,15.607783,16.134041
0.410156,10.043613,9.735669,9.575250,10.335714,12.535356,14.392066,15.578626,15.825616
0.414062,9.757452,9.410024,9.484318,10.553737,12.878378,14.563779,15.440679,15.502695
0.417969,9.441961,9.150815,9.500834,10.824066,13.168647,14.624081,15.232274,15.212486
0.421875,9.132350,8.977747,9.607482,11.105835,13.380045,14.588363,14.997773,14.986472
0.425781,8.859885,8.895943,9.775466,11.362465,13.504324,14.486550,14.777080,14.835156
0.429688,8.646933,8.896122,9.970780,11.568359,13.550870,14.354804,14.596919,14.748452
0.433594,8.503792,8.957498,10.161235,11.712955,13.542579,14.226292,14.465944,14.701430
0.437500,8.427873,9.052800,10.322771,11.801302,13.508887,14.123228,14.374781,14.663739
0.441406,8.405342,9.154350,10.443752,11.851145,13.477621,14.052086,14.300859,14.610106
0.445312,8.414860,9.239959,10.526385,11.887219,13.467615,14.003085,14.216690,14.529049
0.449219,8.432668,9.297458,10.585006,11.934110,13.483809,13.954007,14.099400,14.427439
0.453125,8.438003,9.326933,10.641652,12.009298,13.515985,13.877368,13.938998,14.329640
0.457031,8.417766,9.340240,10.719911,12.118011,13.541428,13.749125,13.743188,14.271383
0.460938,8.369520,9.357904,10.838399,12.251038,13.530899,13.556752,13.537409,14.289937
0.464844,8.302228,9.404063,11.005313,12.386066,13.456510,13.304634,13.359962,14.413123
0.468750,8.234583,9.500510,11.215258,12.492259,13.299657,13.015363,13.253345,14.650083
0.472656,8.191232,9.661067,11.449084,12.537098,13.057119,12.726501,13.253876,14.986276
0.476562,8.197647,9.887479,11.676825,12.493998,12.743847,12.483460,13.382148,15.384175
0.480469,8.274622,10.167703,11.863171,12.348998,12.391687,12.330069,13.636695,15.789670
0.484375,8.433503,10.476993,11.974367,12.105036,12.044233,12.298988,13.992511,16.142753
0.488281,8.673062,10.781621,11.985122,11.782806,11.748852,12.404195,14.404881,16.389968
0.492188,8.978685,11.044533,11.884075,11.417941,11.547599,12.637301,14.817748,16.495641
0.496094,9.324049,11.231867,11.676686,11.055059,11.468989,12.968582,15.174699,16.449165
0.500000,9.675014,11.319038,11.384912,10.739863,11.522436,13.352554,15.430060,16.266629
0.503906,9.995036,11.295233,11.043697,10.510949,11.696554,13.736836,15.557529,15.986423
0.507812,10.251090,11.165404,10.694967,10.393002,11.961698,14.072334,15.554403,15.659965
0.511719,10.419021,10.949379,10.380329,10.392797,12.276172,14.322452,15.440479,15.339890
0.515625,10.487325,10.678266,10.133918,10.498798,12.594699,14.469300,15.252024,15.068615
0.519531,10.458674,10.388853,9.976842,10.684401,12.877322,14.515560,15.032352,14.870071
0.523438,10.348909,10.117092,9.914292,10.914064,13.096746,14.481722,14.821357,14.746553
0.527344,10.183721,9.891957,9.935863,11.150986,13.242581,14.399441,14.646574,14.681275
0.531250,9.993667,9.730837,10.018959,11.364651,13.321608,14.302712,14.517884,14.645801
0.535156,9.808472,9.637358,10.134500,11.536624,13.354117,14.218997,14.427101,14.610227
0.539062,9.651718,9.602006,10.253704,11.663379,13.367275,14.162475,14.352402,14.553346
0.542969,9.536907,9.605373,10.354492,11.755585,13.387124,14.131000,14.266367,14.470018
0.546875,9.465653,9.623310,10.426152,11.834105,13.431121,14.107486,14.145503,14.373752
0.550781,9.428293,9.632921,10.471292,11.923632,13.503016,14.065329,13.978721,14.293755
0.554688,9.406790,9.618118,10.504677,12.045466,13.591259,13.976514,13.772545,14.267163
0.558594,9.379315,9.573614,10.549238,12.211072,13.671369,13.820389,13.551597,14.328460
0.562500,9.325584,9.506500,10.630102,12.417933,13.711718,13.590907,13.354135,14.498862
0.566406,9.231893,9.435068,10.767971,12.648664,13.681422,13.300486,13.223626,14.778474
0.570312,9.094824,9.385123,10.973284,12.873665,13.558490,12.979454,13.198365,15.143405
0.574219,8.922886,9.384504,11.242445,13.056779,13.336347,12.671058,13.301685,15.548739
0.578125,8.735722,9.456938,11.556995,13.162771,13.027142,12.423097,13.535165,15.936826
0.582031,8.561010,9.616473,11.885954,13.165002,12.661016,12.278050,13.876586,16.248979
0.585938,8.429632,9.863649,12.190930,13.051644,12.281378,12.263955,14.283228,16.437784
0.589844,8.370001,10.184215,12.432968,12.829044,11.937144,12.388133,14.699831,16.477076
0.593750,8.402651,10.550686,12.579781,12.521476,11.673606,12.635218,15.069423,16.367154
0.597656,8.536104,10.926501,12.611874,12.167272,11.523886,12.969988,15.344530,16.134014
0.601562,8.764829,11.271994,12.526320,11.812109,11.502823,13.344348,15.496168,15.822840
0.605469,9.069693,11.551032,12.337406,11.500831,11.604617,13.706919,15.518593,15.487398
0.609375,9.420840,11.737056,12.074014,11.269504,11.804696,14.013052,15.428769,15.177982
0.613281,9.782488,11.817362,11.774265,11.139347,12.065367,14.233023,15.260824,14.930882
0.617188,10.118737,11.794789,11.478520,11.113763,12.343956,14.356623,15.056914,14.761899
0.621094,10.399333,11.686544,11.222152,11.179054,12.601610,14.393173,14.856807,14.665393
0.625000,10.604314,11.520391,11.029549,11.308571,12.810825,14.367125,14.688740,14.618885
0.628906,10.726690,11.329004,10.910532,11.469351,12.960031,14.310389,14.563743,14.591865
0.632812,10.772697,11.143618,10.859881,11.629755,13.054316,14.253320,14.474774,14.556318
0.636719,10.759601,10.988225,10.859981,11.766403,13.112193,14.216570,14.400737,14.496143
0.640625,10.711525,10.875486,10.885971,11.868910,13.159281,14.205799,14.314274,14.412887
0.644531,10.654132,10.805122,10.912255,11.941399,13.220426,14.210492,14.191252,14.326233
0.648438,10.609200,10.765089,10.918947,12.000498,13.312170,14.207181,14.019449,14.269074
0.652344,10.590164,10.735235,10.896854,12.070316,13.437380,14.166251,13.804130,14.278394
0.656250,10.599485,10.692674,10.849920,12.175553,13.583331,14.060655,13.569005,14.384360
0.660156,10.628346,10.617722,10.794594,12.334336,13.723757,13.874381,13.352169,14.600481
0.664062,10.658741,10.499165,10.756243,12.552426,13.824441,13.608561,13.197942,14.917498
0.667969,10.667530,10.337739,10.763370,12.820143,13.851099,13.283631,13.146518,15.302724
0.671875,10.631660,10.147076,10.840865,13.112776,13.777757,12.936913,13.223940,15.705218
0.675781,10.533521,9.951876,11.003740,13.394472,13.593699,12.616028,13.434874,16.065660
0.679688,10.365375,9.783638,11.252698,13.624825,13.307338,12.369601,13.760003,16.328630
0.683594,10.131960,9.674773,11.572534,13.766787,12.946069,12.237308,14.158767,16.454337
0.687500,9.850732,9.652271,11.933758,13.794229,12.552032,12.241552,14.576911,16.426962
0.691406,9.549654,9.732163,12.297171,13.697525,12.174653,12.382668,14.957119,16.257618
0.695312,9.262904,9.915924,12.620513,13.485938,11.861539,12.638752,15.250302,15.981223
0.699219,9.025303,10.189523,12.865871,13.186289,11.649676,12.970175,15.424927,15.648126
0.703125,8.866472,10.525367,13.006338,12.838154,11.558833,13.327741,15.472274,15.312562
0.707031,8.805821,10.886756,13.030613,12.486591,11.588570,13.662637,15.406473,15.020819
0.710938,8.849310,11.234026,12.944617,12.173906,11.719440,13.935918,15.259448,14.801985
0.714844,8.988571,11.531188,12.769814,11.932193,11.918071,14.125406,15.072100,14.663477
0.718750,9.202562,11.751780,12.538616,11.778162,12.144925,14.228500,14.883959,14.592299
0.722656,9.461422,11.882833,12.287845,11.711320,12.362971,14.260377,14.723858,14.561501
0.726562,9.731812,11.926194,12.051585,11.715787,12.545313,14.248148,14.603904,14.539986
0.730469,9.982706,11.897006,11.854917,11.765288,12.680092,14.222460,14.518152,14.502968
0.734375,10.190568,11.819693,11.709802,11.830144,12.771601,14.208675,14.446214,14.440257
0.738281,10.342932,11.722299,11.613911,11.884677,12.837452,14.219762,14.360785,14.360130
0.742188,10.439750,11.630341,11.552601,11.913377,12.902540,14.252672,14.237078,14.287699
0.746094,10.492273,11.561436,11.503546,11.914454,12.991265,14.289069,14.061694,14.258193
0.750000,10.519737,11.521799,11.442991,11.899986,13.119914,14.300252,13.838571,14.306853
0.753906,10.544526,11.505286,11.352236,11.892653,13.291020,14.255064,13.590397,14.458123
0.757812,10.586787,11.495195,11.222944,11.919797,13.491099,14.128866,13.354982,14.716979
0.761719,10.659580,11.468415,11.060085,12.006145,13.692356,13.911353,13.177380,15.064804
0.765625,10.765514,11.401072,10.881844,12.166858,13.858052,13.611264,13.099589,15.461009
0.769531,10.895574,11.274484,10.716485,12.402488,13.950356,13.256733,13.150324,15.850223
0.773438,11.030361,11.080205,10.596779,12.697028,13.938939,12.891070,13.337364,16.173411
0.777344,11.143552,10.823061,10.553161,13.019582,13.808342,12.564820,13.644392,16.380272
0.781250,11.206911,10.521546,10.607031,13.329365,13.562434,12.325861,14.033177,16.439958
0.785156,11.195889,10.205416,10.765631,13.583039,13.224887,12.209743,14.450668,16.347482
0.789062,11.094745,9.910922,11.019592,13.742856,12.835498,12.232469,14.839419,16.124308
0.792969,10.900169,9.674583,11.343703,13.783902,12.443096,12.387357,15.148917,15.812997
0.796875,10.622714,9.526711,11.700805,13.698909,12.096547,12.646680,15.345224,15.467275
0.800781,10.285702,9.485941,12.048044,13.499619,11.835777,12.967694,15.416721,15.139995
0.804688,9.921802,9.555841,12.344267,13.214409,11.684757,13.301667,15.374712,14.871953
0.808594,9.567889,9.724276,12.557059,12.882687,11.647915,13.603833,15.248867,14.684255
0.812500,9.259122,9.965633,12.668039,12.547264,11.710706,13.842005,15.078743,14.576013
0.816406,9.023338,10.245491,12.675369,12.246294,11.844110,14.001931,14.903522,14.527739
0.820312,8.876807,10.526798,12.593014,12.006502,12.011999,14.088254,14.752541,14.509384
0.824219,8.822092,10.776364,12.446953,11.839082,12.179633,14.120987,14.638908,14.490750
0.828125,8.848418,10.970398,12.269183,11.739086,12.321355,14.128466,14.557731,14.451457
0.832031,8.934430,11.098031,12.090786,11.688344,12.425751,14.138597,14.489314,14.387770
0.835938,9.052782,11.162164,11.935532,11.661183,12.497128,14.170556,14.406394,14.314427
0.839844,9.175671,11.177539,11.815334,11.631622,12.553042,14.229021,14.283515,14.260972
0.843750,9.280224,11.166461,11.728510,11.580391,12.618515,14.302355,14.106062,14.263485
0.847656,9.352724,11.153100,11.661155,11.500177,12.718341,14.365219,13.876573,14.353901
0.851562,9.390848,11.157553,11.591318,11.397903,12.869353,14.384999,13.616606,14.549717
0.855469,9.403518,11.190915,11.495028,11.293513,13.074492,14.330510,13.363560,14.846861
0.859375,9.408411,11.252375,11.352857,11.215511,13.320160,14.180852,13.163091,15.217709
0.863281,9.427637,11.328956,11.155581,11.194232,13.577547,13.932264,13.058898,15.614967
0.867188,9.482451,11.397960,10.907668,11.254336,13.807731,13.601223,13.082315,15.980619
0.871094,9.588053,11.431648,10.627807,11.408216,13.969469,13.222947,13.244250,16.257871
0.875000,9.749523,11.403196,10.346295,11.651798,14.027965,12.845516,13.531475,16.403236
0.878906,9.959708,11.292729,10.099768,11.963744,13.962651,12.520848,13.908238,16.395825
0.882812,10.199516,11.092191,9.924340,12.308295,13.772237,12.294554,14.322896,16.241595
0.886719,10.440606,10.808036,9.848531,12.641244,13.475841,12.196917,14.718080,15.971552
0.890625,10.649983,10.461158,9.887462,12.917806,13.109921,12.237050,15.042053,15.634368
0.894531,10.795660,10.084028,10.039510,13.100770,12.721614,12.401525,15.258620,15.285277
0.898438,10.852326,9.715543,10.286137,13.167237,12.359935,12.657754,15.353355,14.973980
0.902344,10.805934,9.394583,10.594951,13.112529,12.066712,12.961315,15.334755,14.734532
0.906250,10.656367,9.153488,10.925399,12.950489,11.869209,13.265515,15.230198,14.579603
0.910156,10.417641,9.012735,11.235943,12.710129,11.776014,13.530973,15.077814,14.500397
0.914062,10.115624,8.977811,11.491285,12.429372,11.776998,13.733063,14.916342,14.472039
0.917969,9.783675,9.038889,11.668202,12.147269,11.847255,13.865543,14.775529,14.462849
0.921875,9.457033,9.173316,11.758820,11.896337,11.954058,13.939650,14.669410,14.444954
0.925781,9.166991,9.350420,11.770741,11.696663,12.065161,13.979013,14.594110,14.403351
0.929688,8.935945,9.537640,11.724046,11.553007,12.156532,14.011710,14.530603,14.340998
0.933594,8.774224,9.706762,11.645875,11.455438,12.217735,14.061500,14.451663,14.278547
0.937500,8.679268,9.839015,11.563767,11.383317,12.253736,14.140397,14.331151,14.248746
0.941406,8.637275,9.928041,11.499211,11.311634,12.282772,14.244468,14.153201,14.286973
0.945312,8.626936,9.980164,11.462765,11.218258,12.330792,14.353912,13.918873,14.420381
0.949219,8.624528,10.011958,11.451808,11.090413,12.423838,14.437446,13.648490,14.658543
0.953125,8.609320,10.045636,11.451380,10.928894,12.580159,14.459990,13.378903,14.988142
0.957031,8.568247,10.103261,11.437926,10.749031,12.803972,14.391816,13.156236,15.373248
0.960938,8.498905,10.200967,11.385134,10.578144,13.082392,14.216940,13.025776,15.761320
0.964844,8.410295,10.344436,11.270609,10.449989,13.386330,13.938716,13.021407,16.093594
0.968750,8.321143,10.526563,11.081920,10.397406,13.675281,13.581189,13.157170,16.317430
0.972656,8.256132,10.727858,10.820715,10.444750,13.904994,13.185782,13.423003,16.397615
0.976562,8.240770,10.919511,10.503954,10.601799,14.036375,12.803944,13.785775,16.323898
0.980469,8.295889,11.068581,10.161943,10.860481,14.043655,12.487382,14.195440,16.112919
0.984375,8.432868,11.144260,9.833506,11.195211,13.920016,12.278025,14.594925,15.804094
0.988281,8.650517,11.123986,9.559235,11.566824,13.679397,12.199981,14.931462,15.450489
0.992188,8.934258,10.998186,9.374167,11.929324,13.354067,12.255273,15.166763,15.106949
0.996094,9.257805,10.772676,9.301369,12.238081,12.988475,12.424282,15.283690,14.818412
1.000000,9.587054,10.468229,9.347733,12.457758,12.630701,12.670741,15.287967,14.611220
1.003906,9.885496,10.117355,9.502828,12.568352,12.323386,12.950078,15.204653,14.489484
1.007812,10.120143,9.758915,9.741036,12.568094,12.096081,13.219152,15.070378,14.437201
1.011719,10.266874,9.431585,10.026534,12.472658,11.960657,13.445124,14.923349,14.425400
1.015625,10.314222,9.167441,10.320090,12.310910,11.910706,13.611451,14.793633,14.422283
1.019531,10.264893,8.986885,10.586287,12.118158,11.924949,13.719679,14.696129,14.403596
1.023438,10.134761,8.895880,10.799707,11.928403,11.973785,13.786738,14.627935,14.360435
1.027344,9.949552,8.885994,10.948838,11.767285,12.027394,13.838508,14.570681,14.302397
1.031250,9.739856,8.937180,11.036950,11.647229,12.063482,13.901316,14.497176,14.255212
1.035156,9.535431,9.022706,11.079830,11.565837,12.072874,13.993509,14.380584,14.253448
1.039062,9.359888,9.115198,11.100916,11.507802,12.061629,14.119214,14.203751,14.330210
1.042969,9.226763,9.192554,11.124924,11.449865,12.049222,14.265876,13.966189,14.506544
1.046875,9.137698,9.242536,11.171360,11.367661,12.063213,14.406230,13.686873,14.783399
1.050781,9.083061,9.265099,11.249346,11.242867,12.131669,14.504312,13.401973,15.138368
1.054688,9.044842,9.272010,11.354882,11.069001,12.275123,14.524090,13.157935,15.528231
1.058594,9.001240,9.283835,11.471155,10.854533,12.499992,14.438702,13.001509,15.896870
1.062500,8.931997,9.324933,11.571864,10.622528,12.795039,14.238046,12.969054,16.186733
1.066406,8.823434,9.417503,11.626855,10.406839,13.131808,13.932876,13.077729,16.351106
1.070312,8.672158,9.575908,11.608904,10.245619,13.469021,13.554340,13.320700,16.364240
1.074219,8.486700,9.802480,11.500193,10.173510,13.760080,13.148942,13.667593,16.226835
1.078125,8.286725,10.085689,11.297088,10.214202,13.962040,12.769987,14.070146,15.965592
1.082031,8.099932,10.401112,11.012183,10.374972,14.044122,12.467403,14.471784,15.626929
1.085938,7.957221,10.715056,10.673114,10.644404,13.993887,12.278186,14.818919,15.266455
1.089844,7.887025,10.990161,10.318324,10.993828,13.819718,12.219619,15.071329,14.936785
1.093750,7.909894,11.191918,9.990608,11.382210,13.549070,12.286733,15.209277,14.676685
1.097656,8.034366,11.294818,9.729698,11.763499,13.222859,12.454545,15.235755,14.504131
1.101562,8.254922,11.286951,9.565382,12.094900,12.887255,12.684459,15.173484,14.414878
1.105469,8.552441,11.172140,9.512523,12.344367,12.584662,12.933313,15.057538,14.386685
1.109375,8.897081,10.969194,9.568974,12.495759,12.345876,13.162920,14.925504,14.387918
1.113281,9.253068,10.708442,9.716759,12.550641,12.185085,13.347904,14.807691,14.388141
1.117188,9.584510,10.426207,9.926262,12.526402,12.098759,13.480033,14.719797,14.367839
1.121094,9.861160,10.158328,10.162510,12.451196,12.068560,13.568129,14.659855,14.324649
1.125000,10.063061,9.933980,10.392245,12.356854,12.067501,13.633693,14.610140,14.274449
1.128906,10.183227,9.770990,10.590304,12.271372,12.067854,13.703399,14.543490,14.246974
1.132812,10.227896,9.673549,10.744009,12.212624,12.048916,13.800383,14.432369,14.277111
1.136719,10.214334,9.632714,10.854685,12.184700,12.002782,13.936505,14.258296,14.394171
1.140625,10.166665,9.629544,10.936032,12.177639,11.936780,14.107560,14.019168,14.611978
1.144531,10.110547,9.640194,11.009770,12.170588,11.871961,14.292660,13.732502,14.922473
1.148438,10.067756,9.641879,11.099512,12.137654,11.837985,14.458044,13.433643,15.294654
1.152344,10.051722,9.618471,11.224243,12.055106,11.865586,14.564472,13.169212,15.679314
1.156250,10.064897,9.564557,11.392817,11.908279,11.978360,14.576488,12.987287,16.018588
1.160156,10.098457,9.487120,11.600711,11.696589,12.185822,14.471370,12.926611,16.258066
1.164062,10.134387,9.404464,11.829767,11.435479,12.479365,14.245614,13.007437,16.358555
1.167969,10.149534,9.342602,12.051034,11.154786,12.832167,13.917366,13.226208,16.304629
1.171875,10.120833,9.329818,12.230158,10.893780,13.203158,13.524126,13.555427,16.107888
1.175781,10.030661,9.390504,12.334221,10.693912,13.544259,13.116164,13.948794,15.804123
1.179688,9.871263,9.539530,12.338621,10.590756,13.809373,12.747057,14.350442,15.445122
1.183594,9.647361,9.778307,12.232541,10.606871,13.963174,12.463468,14.706159,15.087132
1.187500,9.376392,10.093369,12.021863,10.747107,13.987797,12.296418,14.973967,14.778812
1.191406,9.086300,10.457806,11.728871,10.997358,13.885977,12.255997,15.131644,14.551603
1.195312,8.811243,10.835317,11.388784,11.327051,13.679978,12.330645,15.179506,14.414786
1.199219,8.586020,11.186124,11.043761,11.694858,13.406568,12.491068,15.137931,14.356290
1.203125,8.440227,11.473612,10.735601,12.056419,13.109195,12.697812,15.040380,14.348826
1.207031,8.393252,11.670433,10.498571,12.372475,12.829096,12.910657,14.923750,14.359603
1.210938,8.451029,11.762890,10.353798,12.615697,12.597319,13.097611,14.818513,14.360943
1.214844,8.605163,11.752767,10.306334,12.774812,12.429387,13.241414,14.741107,14.338966
1.218750,8.834585,11.656290,10.345429,12.855225,12.323726,13.342068,14.690469,14.297997
1.222656,9.109406,11.500436,10.447905,12.876070,12.264117,13.414889,14.649506,14.259544
1.226562,9.396257,11.317364,10.583858,12.864448,12.225495,13.484650,14.591088,14.256075
1.230469,9.664081,11.138086,10.723479,12.848158,12.181671,13.577330,14.486970,14.321247
1.234375,9.889313,10.986633,10.843519,12.848591,12.113118,13.711543,14.317317,14.479168
1.238281,10.059454,10.875887,10.932050,12.875379,12.012954,13.891825,14.078340,14.735578
1.242188,10.174425,10.805870,10.990522,12.924002,11.889683,14.105486,13.785990,15.073361
1.246094,10.245442,10.764809,11.032708,12.976886,11.766004,14.323891,13.474644,15.453745
1.250000,10.291709,10.732707,11.080800,13.007748,11.673930,14.507968,13.190943,15.823082
1.253906,10.335574,10.686668,11.159498,12.988216,11.647300,14.616710,12.984147,16.123679
1.257812,10.397152,10.606831,11.289410,12.895237,11.713403,14.616709,12.895285,16.306117
1.261719,10.489465,10.481697,11.481187,12.717593,11.885642,14.490472,12.947658,16.340061
1.265625,10.615089,10.311692,11.731712,12.460045,12.158981,14.241542,13.141027,16.220927
1.269531,10.764971,10.110224,12.023186,12.144094,12.509266,13.895141,13.450881,15.970779
1.273438,10.919678,9.901956,12.325398,11.805128,12.896694,13.494121,13.833048,15.633232
1.277344,11.052851,9.718622,12.600750,11.486479,13.272728,13.091051,14.232572,15.263646
1.281250,11.136216,9.593163,12.811064,11.231586,13.589018,12.738193,14.594823,14.917009
1.285156,11.145189,9.553370,12.924770,11.075913,13.806403,12.477594,14.876243,14.636473
1.289062,11.063992,9.616273,12.923036,11.040302,13.902059,12.333502,15.052248,14.445304
1.292969,10.889281,9.784415,12.803557,11.127159,13.873263,12.308749,15.120543,14.344095
1.296875,10.631571,10.044770,12.581227,11.320274,13.736996,12.385856,15.099165,14.313763
1.300781,10.314148,10.370544,12.285543,11.588287,13.525524,12.532473,15.019925,14.323340
1.304688,9.969648,10.725526,11.955263,11.891061,13.278988,12.709819,14.918960,14.340397
1.308594,9.634910,11.070175,11.631390,12.187578,13.036706,12.882062,14.826834,14.341266
1.312500,9.345056,11.368249,11.349908,12.443701,12.829111,13.024433,14.760673,14.318334
1.316406,9.127892,11.592727,11.135728,12.638141,12.672142,13.128151,14.720283,14.282457
1.320312,8.999652,11.729869,10.999035,12.765431,12.565262,13.201075,14.689200,14.259863
1.324219,8.962867,11.780674,10.934744,12.835308,12.493488,13.263992,14.640329,14.284333
1.328125,9.006729,11.759484,10.925095,12.868758,12.432862,13.343535,14.544715,14.386751
1.332031,9.109852,11.690081,10.944775,12.891650,12.358010,13.463513,14.381143,14.584788
1.335938,9.244858,11.600085,10.967442,12.927452,12.249966,13.636857,14.144070,14.875531
1.339844,9.383914,11.514820,10.972218,12.990693,12.102370,13.860202,13.847774,15.233100
1.343750,9.504118,11.451905,10.948757,13.082658,11.924543,14.112529,13.525521,15.612087
1.347656,9.591725,11.417659,10.899791,13.190323,11.740637,14.358314,13.223808,15.956134
1.351562,9.644384,11.406059,10.840610,13.288795,11.585003,14.554535,12.992930,16.209661
1.355469,9.670990,11.400432,10.795573,13.346739,11.494779,14.659965,12.876080,16.329933
1.359375,9.689194,11.377533,10.792404,13.333625,11.501350,14.644610,12.899562,16.296517
1.363281,9.721084,11.313163,10.855489,13.227170,11.622638,14.497071,13.066469,16.115814
1.367188,9.787889,11.188151,10.999609,13.019348,11.857995,14.228085,13.355377,15.819565
1.371094,9.904790,10.993459,11.225492,12.719561,12.186916,13.869353,13.724401,15.457687
1.375000,10.076844,10.733335,11.518159,12.354250,12.571939,13.467858,14.119693,15.087213
1.378906,10.296879,10.425824,11.848480,11.962921,12.965166,13.076911,14.486410,14.760055
1.382812,10.545785,10.100474,12.177701,11.591375,13.317037,12.745920,14.779587,14.512539
1.386719,10.795204,9.793650,12.464046,11.283529,13.585459,12.511156,14.972419,14.359223
1.390625,11.012125,9.542338,12.670097,11.073519,13.743358,12.389568,15.060068,14.292355
1.394531,11.164548,9.377633,12.769467,10.979729,13.783012,12.376967,15.058248,14.286910
1.398438,11.227147,9.319189,12.751409,11.001964,13.716311,12.450879,14.997084,14.309721
1.402344,11.185866,9.371704,12.622470,11.122344,13.570941,12.577296,14.911894,14.330193
1.406250,11.040576,9.524137,12.404831,11.309664,13.383420,12.719642,14.833272,14.329721
1.410156,10.805287,9.751799,12.131729,11.526259,13.190621,12.847787,14.778978,14.307308
1.414062,10.505857,10.020911,11.840893,11.735874,13.021689,12.944953,14.749668,14.279886
1.417969,10.175642,10.294726,11.567366,11.910828,12.892194,13.010902,14.729497,14.277264
1.421875,9.849877,10.540022,11.337161,12.036970,12.801794,13.060690,14.691416,14.333026
1.425781,9.559851,10.732692,11.163062,12.115375,12.735879,13.119356,14.605761,14.473814
1.429688,9.327959,10.861366,11.043364,12.160495,12.670741,13.213906,14.449915,14.709856
1.433594,9.164531,10.928376,10.963775,12.195247,12.580995,13.364597,14.216522,15.029336
1.437500,9.067010,10.947945,10.901989,12.244184,12.447462,13.577722,13.918077,15.398239
1.441406,9.021595,10.941994,10.833929,12.326340,12.263609,13.841726,13.586592,15.765920
1.445312,9.006986,10.934493,10.740254,12.449399,12.038976,14.127719,13.268255,16.075174
1.449219,8.999463,10.945517,10.611732,12.606522,11.798707,14.394386,13.014233,16.274427
1.453125,8.978305,10.986260,10.452263,12.776632,11.579207,14.596239,12.869761,16.329104
1.457031,8.930455,11.056045,10.278907,12.928115,11.420828,14.693358,12.864074,16.229380
1.460938,8.853522,11.141959,10.118833,13.025211,11.359203,14.660371,13.003610,15.992411
1.464844,8.756518,11.221206,10.003844,13.035698,11.417171,14.492575,13.270113,15.658505
1.468750,8.658182,11.265723,9.963583,12.938222,11.599111,14.207752,13.624135,15.282151
1.472656,8.583215,11.248125,10.018862,12.727641,11.889012,13.843212,14.013124,14.920132
1.476562,8.557138,11.147777,10.176531,12.417203,12.252761,13.448677,14.382225,14.619607
1.480469,8.600802,10.955752,10.426992,12.037016,12.644198,13.076610,14.685255,14.409037
1.484375,8.725607,10.677645,10.744929,11.629089,13.013656,12.772137,14.893321,14.294077
1.488281,8.930383,10.333639,11.093157,11.239939,13.317153,12.564818,14.999127,14.259280
1.492188,9.200572,9.955754,11.428854,10.912295,13.524252,12.464077,15.016086,14.274958
1.496094,9.509911,9.582793,11.710940,10.677607,13.622927,12.459223,14.972615,14.307280
1.500000,9.824321,9.253911,11.907136,10.550924,13.620428,12.523932,14.903160,14.328847
1.503906,10.107319,9.002080,11.999287,10.529143,13.540062,12.624024,14.838289,14.326932
1.507812,10.325941,8.848669,11.985922,10.592969,13.414686,12.726610,14.796351,14.307201
1.511719,10.456095,8.800198,11.881537,10.712068,13.278470,12.808374,14.778826,14.291925
1.515625,10.486341,8.847868,11.712840,10.852262,13.158831,12.861028,14.770492,14.313176
1.519531,10.419414,8.969928,11.512738,10.983159,13.070386,12.892634,14.744358,14.402803
1.523438,10.271220,9.136367,11.313372,11.084550,13.012295,12.924526,14.670059,14.581875
1.527344,10.067515,9.315003,11.139644,11.150196,12.969551,12.984624,14.523558,14.852432
1.531250,9.838918,9.477715,11.004585,11.188194,12.917875,13.098819,14.295627,15.193846
1.535156,9.615222,9.605604,10.907507,11.217912,12.831021,13.282567,13.996877,15.564917
1.539062,9.420072,9.692048,10.835286,11.264207,12.688738,13.534816,13.657919,15.911382
1.542969,9.267035,9.743082,10.766453,11.350278,12.483481,13.835837,13.324463,16.177109
1.546875,9.157788,9.775069,10.677179,11.490784,12.224227,14.149610,13.048383,16.316307
1.550781,9.082733,9.810156,10.547842,11.686831,11.936422,14.430323,12.876816,16.303766
1.554688,9.023896,9.870511,10.368709,11.923998,11.657974,14.631580,12.841852,16.140617
1.558594,8.959512,9.972519,10.143499,12.173923,11.432091,14.716214,12.953261,15.854174
1.562500,8.869357,10.122182,9.890000,12.399184,11.298531,14.664474,13.196028,15.491912
1.566406,8.739789,10.312693,9.637543,12.560467,11.285177,14.478669,13.533279,15.111033
1.570312,8.567451,10.524710,9.421817,12.624514,11.401835,14.183187,13.913944,14.766180
1.574219,8.360911,10.729347,9.278064,12.571145,11.637643,13.819838,14.283354,14.498288
1.578125,8.139868,10.893291,9.234042,12.397841,11.962701,13.439576,14.594291,14.327221
1.582031,7.932060,10.985066,9.304225,12.120867,12.333605,13.092444,14.815920,14.249879
1.585938,7.768421,10.981203,9.486432,11.772680,12.701678,12.818021,14.938577,14.244047
1.589844,7.677421,10.871074,9.761635,11.396125,13.022137,12.638490,14.973406,14.276809
1.593750,7.679646,10.659433,10.096986,11.036633,13.262196,12.555821,14.947100,14.315193
1.597656,7.783669,10.366120,10.451497,10.734034,13.406387,12.553610,14.893192,14.336193
1.601562,7.984007,10.022973,10.783222,10.515703,13.457997,12.602996,14.842170,14.333506
1.605469,8.261574,9.668526,11.056512,10.392425,13.436411,12.671151,14.812934,14.319202
1.609375,8.586561,9.341501,11.247897,10.357799,13.371054,12.730233,14.807769,14.319905
1.613281,8.923229,9.074369,11.349419,10.391232,13.293415,12.764629,14.812083,14.368507
1.617188,9.235720,8.888195,11.368818,10.463775,13.229004,12.774736,14.798956,14.493617
1.621094,9.493819,8.789757,11.326571,10.545478,13.191147,12.776377,14.737336,14.709588
1.625000,9.677600,8.771450,11.250482,10.612601,13.178020,12.796027,14.601755,15.009835
1.628906,9.780110,8.813956,11.169008,10.653076,13.173612,12.863023,14.381062,15.365346
1.632812,9.807617,8.891078,11.104734,10.669025,13.152363,13.000704,14.083883,15.728975
1.636719,9.777417,8.975750,11.069419,10.675772,13.086369,13.218659,13.739285,16.044619
1.640625,9.713661,9.045960,11.061630,10.697609,12.953444,13.508066,13.392326,16.259136
1.644531,9.642038,9.089407,11.067479,10.761270,12.744122,13.841340,13.095413,16.334112
1.648438,9.584348,9.105926,11.064266,10.888607,12.465907,14.176326,12.897440,16.254595
1.652344,9.554048,9.107203,11.026258,11.090123,12.143679,14.464166,12.833253,16.032639
1.656250,9.553615,9.113853,10.931323,11.360872,11.816076,14.659115,12.915938,15.704779
1.660156,9.574248,9.150470,10.766991,11.679694,11.528547,14.728073,13.133775,15.324024
1.664062,9.597955,9.239675,10.534604,12.012056,11.324564,14.657667,13.452591,14.948355
1.667969,9.601603,9.396393,10.250619,12.315953,11.236909,14.457239,13.822973,14.628498
1.671875,9.562148,9.623570,9.944712,12.549670,11.280941,14.157056,14.190633,14.397945
1.675781,9.461985,9.910221,9.655019,12.679785,11.451352,13.802133,14.507505,14.267565
1.679688,9.293378,10.232281,9.421440,12.687710,11.723118,13.443078,14.740959,14.225973
1.683594,9.061063,10.556129,9.278341,12.573394,12.056452,13.126031,14.879061,14.245360
1.687500,8.782494,10.844133,9.248146,12.355385,12.404675,12.883972,14.930727,14.291103
1.691406,8.485625,11.061166,9.337113,12.067245,12.723270,12.731319,14.920921,14.332543
1.695312,8.204629,11.180815,9.534159,11.751073,12.978155,12.662959,14.882226,14.352053
1.699219,7.974313,11.190083,9.812976,11.449502,13.151393,12.657802,14.845004,14.350001
1.703125,7.824283,11.091662,10.137001,11.197865,13.243142,12.685885,14.828672,14.344314
1.707031,7.773935,10.903330,10.466227,11.018160,13.269528,12.717221,14.836306,14.364773
1.710938,7.829208,10.654611,10.764464,10.916045,13.257024,12.730217,14.853951,14.443575
1.714844,7.981713,10.381337,11.005590,10.881442,13.234717,12.717582,14.854785,14.604681
1.718750,8.210381,10.119196,11.177531,10.892507,13.226313,12.688285,14.807085,14.854829
1.722656,8.485327,9.897530,11.283220,10.922038,13.243768,12.665105,14.683945,15.178699
1.726562,8.773181,9.734572,11.338388,10.944820,13.284039,12.678341,14.472247,15.539650
1.730469,9.042887,9.635051,11.366741,10.944252,13.329725,12.757246,14.178534,15.886073
1.734375,9.270872,9.590566,11.393579,10.916749,13.353452,12.921275,13.830187,16.161908
1.738281,9.444636,9.582629,11.439279,10.872919,13.324985,13.173320,13.471440,16.318838
1.742188,9.564092,9.587680,11.514042,10.835239,13.219412,13.496657,13.155053,16.327180
1.746094,9.640451,9.583037,11.615052,10.832749,13.024453,13.856454,12.931516,16.182781
1.750000,9.692906,9.552518,11.726685,10.893915,12.745171,14.205638,12.838328,15.908225
1.753906,9.743794,9.490577,11.823719,11.039282,12.404899,14.493849,12.891855,15.548008
1.757812,9.813219,9.404079,11.876899,11.275559,12.042064,14.677505,13.083712,15.158873
1.761719,9.914190,9.311331,11.859665,11.592500,11.703521,14.728705,13.382543,14.797644
1.765625,10.049268,9.238550,11.754607,11.963341,11.435797,14.640933,13.740756,14.509521
1.769531,10.209384,9.214462,11.558267,12.348787,11.276139,14.430285,14.104639,14.319630
1.773438,10.375086,9.264131,11.283224,12.703770,11.245305,14.131933,14.425458,14.229790
1.777344,10.519998,9.403263,10.956954,12.985590,11.343667,13.792651,14.668946,14.221106
1.781250,10.615826,9.634163,10.617658,13.161754,11.551487,13.461124,14.821000,14.261532
1.785156,10.637964,9.944181,10.307835,13.215865,11.833251,13.178242,14.888358,14.316294
1.789062,10.570611,10.307019,10.066891,13.150348,12.145118,12.969578,14.894255,14.358370
1.792969,10.410400,10.686679,9.924246,12.985450,12.443802,12.841705,14.870295,14.376240
1.796875,10.167821,11.043312,9.894337,12.754761,12.694944,12.783076,14.846679,14.376893
1.800781,9.866135,11.339862,9.974490,12.498228,12.879135,12.769138,14.843306,14.383290
1.804688,9.537950,11.548225,10.146080,12.254181,12.994333,12.770317,14.864038,14.427013
1.808594,9.220077,11.653734,10.378702,12.052058,13.054218,12.760881,14.895568,14.538048
1.812500,8.947610,11.657132,10.636468,11.907370,13.082979,12.726474,14.911200,14.734454
1.816406,8.748325,11.573666,10.885120,11.819930,13.107817,12.668447,14.878564,15.014736
1.820312,8.638424,11.429520,11.098480,11.775664,13.150992,12.603938,14.769320,15.355060
1.824219,8.620409,11.256323,11.262929,11.751506,13.223285,12.561627,14.568339,15.712223
1.828125,8.683439,11.084844,11.379022,11.722229,13.320467,12.574200,14.279994,16.031830
1.832031,8.806093,10.939130,11.459945,11.667633,13.423611,12.669346,13.929838,16.259775
1.835938,8.960964,10.832263,11.527222,11.578443,13.503227,12.861468,13.561108,16.354260
1.839844,9.120181,10.764543,11.604622,11.459548,13.526274,13.146192,13.226728,16.295395
1.843750,9.260810,10.724449,11.711619,11.329822,13.464462,13.499060,12.978622,16.090004
1.847656,9.369069,10.692119,11.857844,11.218526,13.301890,13.878879,12.856822,15.770439
1.851562,9.442573,10.644627,12.039755,11.159034,13.040245,14.235046,12.880919,15.387642
1.855469,9.490181,10.561920,12.240282,11.181270,12.700292,14.517281,13.045897,15.000173
1.859375,9.529510,10.432189,12.431571,11.304490,12.319202,14.685572,13.323316,14.661839
1.863281,9.582608,10.255528,12.580290,11.532038,11.944239,14.718115,13.667562,14.410930
1.867188,9.670672,10.045093,12.654404,11.849265,11.624117,14.615443,14.025683,14.263607
1.871094,9.808844,9.825492,12.630029,12.225122,11.399866,14.399840,14.348464,14.212921
1.875000,10.002145,9.628666,12.496900,12.617167,11.297203,14.110192,14.600155,14.233508
1.878906,10.243367,9.488070,12.261309,12.978985,11.322031,13.793496,14.764593,14.290578
1.882812,10.513365,9.432286,11.945847,13.268477,11.460021,13.494989,14.846394,14.350729
1.886719,10.783744,9.479341,11.585966,13.455318,11.680331,13.249152,14.867074,14.391710
1.890625,11.021457,9.632860,11.224016,13.526032,11.942581,13.073627,14.857237,14.408563
1.894531,11.194469,9.880842,10.901940,13.485661,12.205515,12.967358,14.846887,14.414537
1.898438,11.277419,10.197322,10.654085,13.355714,12.435396,12.913270,14.856384,14.436578
1.902344,11.256216,10.546618,10.501557,13.168906,12.612296,12.884713,14.890367,14.506603
1.906250,11.130699,10.889350,10.449235,12.961847,12.732911,12.854003,14.936201,14.650925
1.910156,10.914841,11.189068,10.486003,12.767296,12.809362,12.800935,14.967344,14.880658
1.914062,10.634470,11.418228,10.588093,12.607645,12.864355,12.719119,14.950813,15.185770
1.917969,10.322908,11.562353,10.724792,12.491031,12.923906,12.618580,14.856840,15.534469
1.921875,10.015359,11.621613,10.865287,12.410876,13.009400,12.523922,14.668254,15.878321
1.925781,9.743081,11.609569,10.985206,12.348879,13.130893,12.468479,14.387171,16.161962
1.929688,9.528439,11.549368,11.071463,12.280748,13.283266,12.485821,14.037182,16.335115
1.933594,9.381734,11.468205,11.124429,12.183321,13.446209,12.600667,13.660350,16.363983
1.937500,9.300382,11.391210,11.156974,12.041445,13.588072,12.821414,13.309576,16.239204
1.941406,9.270554,11.335995,11.190650,11.853022,13.672772,13.136133,13.038043,15.978382
1.945312,9.270922,11.308981,11.249839,11.631027,13.668196,13.513107,12.888181,15.622541
1.949219,9.277743,11.304255,11.355166,11.401996,13.554174,13.905894,12.882747,15.227347
1.953125,9.270272,11.305163,11.517614,11.201239,13.328187,14.261883,13.020103,14.851222
1.957031,9.235428,11.288318,11.734656,11.065775,13.007449,14.532429,13.274814,14.543228
1.960938,9.170800,11.229183,11.989261,11.026502,12.626809,14.682336,13.603393,14.333638
1.964844,9.085377,11.108077,12.252085,11.101287,12.232856,14.696541,13.953826,14.229387
1.968750,8.997883,10.915347,12.486413,11.290508,11.875462,14.582513,14.276600,14.215362
1.972656,8.932997,10.654633,12.654907,11.576027,11.598557,14.367890,14.534636,14.260998
1.976562,8.916226,10.343496,12.726767,11.923884,11.432139,14.093912,14.709829,14.330319
1.980469,8.968405,10.011241,12.683852,12.290171,11.387207,13.806230,14.804732,14.392722
1.984375,9.100921,9.694311,12.524482,12.628895,11.454690,13.545223,14.839162,14.431639
1.988281,9.312590,9.430123,12.264144,12.900186,11.608531,13.338035,14.842706,14.448820
1.992188,9.588846,9.250531,11.932915,13.077162,11.812179,13.194144,14.845143,14.463139
1.996094,9.903414,9.176191,11.570136,13.150041,12.026975,13.105377,14.867276,14.504274
