timestamp,tp9,af7,af8,tp10,aux1,aux2,aux3,aux4
0.000000,9.500000,10.323840,11.146730,11.967757,12.786083,13.600977,14.411845,15.218254
0.003906,9.845765,10.681101,11.515417,12.347800,13.177418,14.003542,14.825586,15.643121
0.007812,10.155299,10.999217,11.841881,12.682377,13.519868,14.353629,15.183071,16.007772
0.011719,10.398173,11.245542,12.091160,12.934107,13.773542,14.608735,15.439098,16.264207
0.015625,10.554504,11.399178,12.241353,13.080105,13.914592,14.744087,15.568006,16.385932
0.019531,10.617745,11.453980,12.286836,13.115401,13.938849,14.756472,15.567711,16.372174
0.023438,10.595051,11.418767,12.238281,13.052720,13.861301,14.663367,15.458411,16.246099
0.027344,10.505170,11.314730,12.119510,12.918707,13.711615,14.497655,15.276407,16.047624
0.031250,10.374301,11.170603,11.961904,12.747496,13.526769,14.299247,15.064612,15.822726
0.035156,10.230721,11.016578,11.797551,12.573030,13.342510,14.105616,14.862135,15.612029
0.039062,10.099246,10.878208,11.652580,12.421842,13.185575,13.943493,14.695465,15.441535
0.042969,9.996580,10.771512,11.542082,12.307839,13.068432,13.823640,14.573399,15.317815
0.046875,9.928441,10.700265,11.467656,12.230223,12.987682,13.739886,14.486845,15.228743
0.050781,9.889007,10.655985,11.418054,12.174924,12.926430,13.672554,14.413449,15.149453
0.054688,9.862774,10.620596,11.372766,12.119207,12.859992,13.595364,14.325754,15.051789
0.058594,9.828422,10.571188,11.307719,12.038341,12.763553,13.484049,14.200720,14.914655
0.062500,9.763929,10.485873,11.201845,11.912809,12.619918,13.324514,14.028116,14.732402
0.066406,9.651912,10.349516,11.043069,11.734401,12.425497,13.118472,13.815530,14.518928
0.070312,9.484112,10.158124,10.832399,11.509754,12.193043,12.885093,13.588642,14.306268
0.074219,9.264134,9.920968,10.585188,11.260504,11.950428,12.658168,13.386542,14.137887
0.078125,9.007858,9.659950,10.329231,11.019916,11.735642,12.479345,13.253151,14.058303
0.082031,8.741416,9.406293,10.100048,10.826676,11.589085,12.388982,13.226792,14.101632
0.085938,8.497064,9.195170,9.934282,10.717146,11.544842,12.416729,13.330444,14.281982
0.089844,8.307724,9.059322,9.862556,10.717725,11.622913,12.574055,13.565091,14.588211
0.093750,8.201207,9.022897,9.903258,10.838978,11.824150,12.850521,13.907873,14.984488
0.097656,8.195210,9.096748,10.058549,11.072820,12.129088,13.214724,14.315571,15.416664
0.101562,8.294027,9.276116,10.313439,11.393377,12.500982,13.619790,14.732722,15.823012
0.105469,8.487619,9.541172,10.638129,11.761407,12.892429,14.012218,15.102506,16.146795
0.109375,8.753197,9.860324,10.993190,12.131354,13.254178,14.342114,15.377912,16.347668
0.113281,9.059059,10.195659,11.336519,12.459583,13.544213,14.572542,15.530604,16.409199
0.117188,9.369938,10.509461,11.630696,12.712079,13.735176,14.685918,15.555481,16.340788
0.121094,9.652885,10.770542,11.849255,12.870028,13.818540,14.686064,15.469948,16.173619
0.125000,9.882573,10.959179,11.980632,12.932144,13.804707,14.595570,15.308210,15.951817
0.128906,10.045050,11.069710,12.029046,12.913327,13.719100,14.449170,15.112068,15.721088
0.132812,10.139273,11.110329,12.012180,12.840026,13.595217,14.284785,14.920529,15.517777
0.136719,10.176151,11.100183,11.956229,12.743381,13.466287,14.134380,14.760795,15.361069
0.140625,10.175347,11.064396,11.889396,12.651700,13.357462,14.016808,14.642792,15.250229
0.144531,10.160477,11.028073,11.835256,12.583936,13.280334,13.934315,14.558529,15.167451
0.148438,10.153687,11.010525,11.807393,12.545612,13.231002,13.873464,14.486319,15.085413
0.152344,10.170662,11.020901,11.806464,12.528086,13.192097,13.810189,14.398695,14.977406
0.156250,10.217069,11.056124,11.820305,12.511265,13.138246,13.717673,14.271917,14.827261
0.160156,10.287136,11.101558,11.827043,12.469176,13.043646,13.575066,14.094565,14.636331
0.164062,10.364642,11.134266,11.800540,12.377088,12.889944,13.374841,13.872948,14.425554
0.167969,10.426150,11.128196,11.716991,12.218572,12.672517,13.126925,13.631828,14.231931
0.171875,10.445841,11.060230,11.561243,11.990886,12.403620,12.858491,13.410157,14.100183
0.175781,10.401016,10.915840,11.331452,11.707412,12.111577,12.609324,13.252748,14.071645
0.179688,10.277192,10.693189,11.041043,11.396523,11.836086,12.423779,13.199863,14.173217
0.183594,10.071774,10.404797,10.717478,11.097048,11.620627,12.341135,13.277232,14.409217
0.187500,9.795577,10.076381,10.398033,10.851238,11.503603,12.386575,13.488950,14.758300
0.191406,9.471854,9.743046,10.123387,10.696688,11.510185,12.564925,13.815068,15.176355
0.195312,9.132982,9.443546,9.930312,10.658939,11.646678,12.858623,14.214525,15.604811
0.199219,8.815401,9.213694,9.844921,10.746314,11.898680,13.230476,14.632848,15.982429
0.203125,8.553717,9.080199,9.877867,10.948103,12.233476,13.630606,15.012854,16.257770
0.207031,8.375085,9.056134,10.022445,11.236498,12.606171,14.006073,15.305913,16.399374
0.210938,8.294881,9.138893,10.255994,11.571861,12.968238,14.311008,15.481144,16.401242
0.214844,8.314492,9.311029,10.544299,11.910232,13.276621,14.515011,15.530496,16.282392
0.218750,8.421587,9.543799,10.848088,12.211483,13.501445,14.607956,15.468576,16.080729
0.222656,8.592826,9.802689,11.130299,12.446419,13.630668,14.600217,15.327434,15.842877
0.226562,8.798455,10.053833,11.362634,12.601355,13.670758,14.518379,15.147659,15.612595
0.230469,9.007902,10.270056,11.530088,12.679260,13.643326,14.397547,14.968051,15.420725
0.234375,9.195316,10.435357,11.632568,12.697312,13.578599,14.272160,14.816424,15.279139
0.238281,9.343983,10.546981,11.683333,12.681475,13.507291,14.167520,14.703761,15.180133
0.242188,9.448803,10.614704,11.704651,12.659379,13.452784,14.094065,14.623132,15.101255
0.246094,9.516373,10.657536,11.721651,12.653115,13.425443,14.045718,14.553497,15.014138
0.250000,9.562700,10.698551,11.755731,12.673568,13.420373,14.002657,14.467373,14.894907
0.253906,9.609022,10.758940,11.818955,12.717592,13.419120,13.937777,14.340299,14.733272
0.257812,9.676578,10.852539,11.910663,12.768625,13.394902,13.825216,14.159629,14.537810
0.261719,9.781375,10.981977,12.017044,12.800655,13.320127,13.648811,13.930313,14.335906
0.265625,9.930010,11.137255,12.113787,12.784620,13.174409,13.408350,13.676087,14.168233
0.269531,10.117382,11.297094,12.171262,12.695834,12.951179,13.122006,13.435638,14.079081
0.273438,10.326778,11.432792,12.161156,12.520760,12.661279,12.824253,13.254546,14.104955
0.277344,10.532347,11.513847,12.063134,12.261577,12.332616,12.559605,13.174921,14.264357
0.281250,10.703517,11.514215,11.870118,11.937479,12.005833,12.373581,13.225199,14.551422
0.285156,10.810533,11.417950,11.591031,11.582328,11.726891,12.302917,13.412618,14.935128
0.289062,10.830056,11.223067,11.250356,11.239084,11.538127,12.367305,13.720238,15.364440
0.292969,10.749755,10.942842,10.884567,10.952136,11.469764,12.564566,14.109319,15.778256
0.296875,10.571017,10.604234,10.536081,10.759126,11.533717,12.870425,14.526582,16.117812
0.300781,10.309218,10.243706,10.245938,10.683972,11.721085,13.242970,14.914696,16.338605
0.304688,9.991512,9.901238,10.046675,10.732545,12.003869,13.630819,15.223597,16.418979
0.308594,9.652506,9.613669,9.956797,10.891915,12.340567,13.983171,15.420008,16.363369
0.312500,9.328640,9.408645,9.977968,11.133286,12.684385,14.259472,15.492999,16.199535
0.316406,9.052290,9.300343,10.095445,11.417982,12.992297,14.436566,15.454392,15.970586
0.320312,8.846711,9.287754,10.281634,11.705197,13.232953,14.511756,15.334030,15.723889
0.324219,8.722717,9.355850,10.502003,11.959852,13.391753,14.501215,15.171203,15.499703
0.328125,8.677713,9.479329,10.722111,12.158889,13.472043,14.434227,15.004403,15.322389
0.332031,8.697215,9.628186,10.914285,12.294705,13.492268,14.344746,14.861959,15.196329
0.335938,8.758525,9.773955,11.062578,12.375056,13.479842,14.262338,14.755846,15.107479
0.339844,8.835825,9.895359,11.165007,12.419533,13.463232,14.204719,14.680151,15.029957
0.343750,8.905675,9.982252,11.232656,12.453468,13.464134,14.173669,14.614466,14.935811
0.347656,8.951857,10.037064,11.285882,12.500697,13.491604,14.155280,14.531284,14.805262
0.351562,8.968598,10.073487,11.348493,12.576831,13.539506,14.124450,14.405409,14.634600
0.355469,8.961565,10.112702,11.441191,12.684580,13.587905,14.052489,14.222924,14.439545
0.359375,8.946443,10.177945,11.575702,12.812217,13.608069,13.915937,13.987345,14.253042
0.363281,8.945377,10.288551,11.750923,12.935562,13.569931,13.704412,13.721273,14.117954
0.367188,8.981985,10.454725,11.951920,13.023070,13.450267,13.425485,13.462995,14.076426
0.371094,9.075929,10.674147,12.152076,13.042942,13.239653,13.105304,13.258730,14.158625
0.375000,9.238119,10.931143,12.317956,12.970685,12.946547,12.784684,13.152325,14.373757
0.378906,9.467509,11.198645,12.415924,12.795438,12.597450,12.511442,13.174873,14.705733
0.382812,9.750151,11.442604,12.419132,12.523655,12.233011,12.330697,13.336767,15.114729
0.386719,10.060716,11.627997,12.313427,12.179256,11.900848,12.275314,13.624167,15.544392
0.390625,10.366253,11.725274,12.100929,11.800150,11.646598,12.358699,14.000808,15.933070
0.394531,10.631499,11.715969,11.800496,11.431801,11.505129,12.571612,14.414801,16.226383
0.398438,10.824750,11.596362,11.444947,11.119143,11.493842,12.883749,14.808880,16.388155
0.402344,10.923218,11.378462,11.075564,10.898525,11.609497,13.249756,15.131745,16.407101
0.406250,10.916862,11.088109,10.734961,10.791350,11.829250,13.618317,15.347869,16.297733
0.410156,10.809978,10.760536,10.459750,10.800725,12.115666,13.942272,15.443535,16.095384
0.414062,10.620262,10.434281,10.274457,10.911774,12.424544,14.187473,15.427797,15.846696
0.417969,10.375525,10.144589,10.187897,11.095519,12.713856,14.338429,15.328254,15.598043
0.421875,10.108690,9.917620,10.192691,11.315426,12.951790,14.399548,15.182821,15.384807
0.425781,9.852013,9.766541,10.267972,11.535202,13.122176,14.391802,15.029583,15.224176
0.429688,9.631624,9.690243,10.384651,11.726128,13.226154,14.345755,14.897298,15.113185
0.433594,9.463405,9.674880,10.512111,11.872385,13.279797,14.292704,14.798865,15.032331
0.437500,9.350961,9.697872,10.624896,11.973229,13.308362,14.256114,14.729349,14.953665
0.441406,9.286032,9.733507,10.707983,12.041624,13.338570,14.245453,14.668963,14.851082
0.445312,9.251235,9.758984,10.759536,12.099703,13.390780,14.253901,14.590167,14.709989
0.449219,9.224549,9.759643,10.790585,12.172119,13.472921,14.260490,14.467015,14.533677
0.453125,9.184655,9.732309,10.821732,12.278840,13.577642,14.236128,14.284282,14.344610
0.457031,9.116046,9.686056,10.877615,12.429038,13.683383,14.152036,14.043973,14.180156
0.460938,9.012902,9.640243,10.980335,12.617495,13.759144,13.988506,13.767440,14.083753
0.464844,8.880941,9.620215,11.143306,12.824393,13.771891,13.741802,13.492434,14.093724
0.468750,8.736867,9.651542,11.366865,13.018579,13.694894,13.427457,13.265672,14.232590
0.472656,8.605495,9.754000,11.636637,13.163681,13.515049,13.079024,13.132627,14.499675
0.476562,8.515104,9.936514,11.925073,13.225736,13.237475,12.742475,13.126979,14.868994
0.480469,8.491891,10.194138,12.195903,13.180709,12.886238,12.467399,13.262277,15.293110
0.484375,8.554604,10.507727,12.410629,13.020249,12.500948,12.296995,13.527858,15.712159
0.488281,8.710400,10.846416,12.535757,12.754402,12.129892,12.259100,13.890077,16.065943
0.492188,8.952732,11.172473,12.549280,12.410641,11.821145,12.360316,14.298625,16.306216
0.496094,9.261714,11.447601,12.445097,12.029377,11.613570,12.584581,14.696515,16.406228
0.500000,9.606921,11.639489,12.234437,11.656847,11.529647,12.896505,15.031407,16.365272
0.503906,9.952119,11.727335,11.943993,11.336840,11.571670,13.248721,15.265681,16.207233
0.507812,10.261078,11.705281,11.611123,11.102993,11.722115,13.591565,15.382935,15.973597
0.511719,10.503370,11.583093,11.277107,10.973229,11.948031,13.882888,15.389483,15.712789
0.515625,10.659111,11.383989,10.979794,10.947476,12.208457,14.095791,15.310657,15.468532
0.519531,10.721754,11.140033,10.747145,11.009072,12.463164,14.222579,15.182923,15.270180
0.523438,10.698454,10.886040,10.592937,11.129489,12.680787,14.274148,15.043876,15.127369
0.527344,10.607960,10.653188,10.515467,11.275295,12.844532,14.275076,14.922617,15.030228
0.531250,10.476470,10.463592,10.499452,11.415789,12.954259,14.255712,14.832905,14.954907
0.535156,10.332261,10.326904,10.520652,11.529643,13.024549,14.243268,14.770751,14.872827
0.539062,10.200151,10.239564,10.552200,11.609086,13.079292,14.254084,14.716969,14.761081
0.542969,10.096842,10.186814,10.571234,11.660764,13.144153,14.289006,14.643991,14.611126
0.546875,10.028052,10.147005,10.564419,11.703108,13.238719,14.332981,14.525105,14.433374
0.550781,9.987960,10.097293,10.531163,11.760856,13.370233,14.358991,14.343742,14.256339
0.554688,9.961062,10.019508,10.483832,11.857989,13.530421,14.335375,14.100317,14.120454
0.558594,9.926037,9.904976,10.444914,12.010703,13.696222,14.234753,13.814823,14.068053
0.562500,9.860864,9.757277,10.441746,12.222042,13.834316,14.042358,13.524336,14.132057
0.566406,9.748160,9.592340,10.499926,12.479442,13.908445,13.761714,13.275921,14.326284
0.570312,9.579667,9.435819,10.636818,12.755828,13.887908,13.416185,13.116552,14.639943
0.574219,9.358987,9.318267,10.856588,13.014077,13.755251,13.045890,13.082418,15.037828
0.578125,9.102003,9.269041,11.147833,13.213979,13.511400,12.700589,13.190211,15.466361
0.582031,8.834846,9.310176,11.484403,13.320205,13.176988,12.430067,13.432508,15.864098
0.585938,8.589772,9.451460,11.829283,13.309600,12.789511,12.274180,13.778415,16.174259
0.589844,8.399704,9.687716,12.140825,13.176230,12.396838,12.254803,14.179394,16.356267
0.593750,8.292451,9.998871,12.380068,12.933072,12.048473,12.371507,14.578938,16.393564
0.597656,8.285711,10.352841,12.517696,12.609976,11.786404,12.601934,14.923874,16.295860
0.601562,8.383780,10.710696,12.539231,12.248295,11.637535,12.906775,15.174654,16.095389
0.605469,8.576616,11.033122,12.447406,11.893289,11.609300,13.238179,15.312292,15.838191
0.609375,8.841432,11.286951,12.261266,11.585909,11.689364,13.549671,15.340413,15.572690
0.613281,9.146525,11.450490,12.012186,11.355659,11.849409,13.805305,15.282058,15.338451
0.617188,9.456629,11.516652,11.737657,11.215997,12.052097,13.985998,15.172190,15.157918
0.621094,9.738795,11.493300,11.474100,11.163209,12.259586,14.091679,15.047830,15.033113
0.625000,9.967694,11.400784,11.250204,11.178886,12.441685,14.138860,14.938347,14.947984
0.628906,10.129378,11.267211,11.082122,11.235410,12.581803,14.154373,14.858301,14.875615
0.632812,10.222800,11.122402,10.971487,11.303152,12.679394,14.166849,14.804612,14.788255
0.636719,10.258872,10.991792,10.906587,11.357783,12.748422,14.198116,14.758691,14.667403
0.640625,10.257254,10.891476,10.866400,11.386038,12.812265,14.256614,14.692935,14.511174
0.644531,10.241566,10.825409,10.826556,11.388672,12.896338,14.334494,14.579864,14.336908
0.648438,10.233951,10.785282,10.765924,11.379951,13.020198,14.409122,14.401522,14.178198
0.652344,10.250095,10.753098,10.672366,11.383808,13.191051,14.448651,14.156668,14.077023
0.656250,10.295666,10.705864,10.546401,11.427539,13.400235,14.420348,13.863818,14.072924
0.660156,10.364890,10.621434,10.401960,11.534464,13.623589,14.299643,13.559231,14.192008
0.664062,10.441549,10.484274,10.264033,11.717226,13.825685,14.077704,13.290170,14.438631
0.667969,10.502203,10.289936,10.163675,11.973262,13.967059,13.765639,13.104969,14.792003
0.671875,10.521035,10.047279,10.131411,12.283528,14.012820,13.394216,13.042236,15.208717
0.675781,10.475345,9.777962,10.190412,12.614833,13.940708,13.009034,13.121782,15.630745
0.679688,10.350651,9.513221,10.350903,12.925383,13.746770,12.662144,13.339471,15.997065
0.683594,10.144358,9.288565,10.606994,13.172386,13.447326,12.401960,13.667284,16.256157
0.687500,9.867279,9.137386,10.936653,13.320154,13.076725,12.263728,14.058627,16.376380
0.691406,9.542669,9.084753,11.304876,13.346983,12.681318,12.262685,14.457685,16.351777
0.695312,9.202906,9.142603,11.669468,13.249364,12.310936,12.391437,14.810649,16.201958
0.699219,8.884428,9.307287,11.988281,13.042626,12.009680,12.622134,15.076214,15.966209
0.703125,8.621843,9.559971,12.226475,12.757882,11.808024,12.912888,15.232928,15.693389
0.707031,8.442303,9.869814,12.362357,12.435925,11.717899,13.216935,15.281777,15.430191
0.710938,8.361188,10.199322,12.390640,12.119377,11.731765,13.492423,15.243511,15.210709
0.714844,8.379882,10.510833,12.322489,11.844744,11.825802,13.710573,15.151534,15.049896
0.718750,8.486055,10.772877,12.182410,11.636052,11.966401,13.860397,15.042224,14.942410
0.722656,8.656368,10.965189,12.002652,11.501361,12.118435,13.948974,14.945144,14.866996
0.726562,8.861066,11.081418,11.816329,11.432843,12.253393,13.997344,14.875601,14.795070
0.730469,9.069577,11.129053,11.650688,11.410309,12.355524,14.033136,14.831395,14.701124
0.734375,9.256051,11.126625,11.521940,11.407328,12.424616,14.081809,14.794526,14.572077
0.738281,9.403774,11.098822,11.432707,11.398525,12.474819,14.158691,14.737359,14.413021
0.742188,9.507644,11.070518,11.372567,11.366382,12.529839,14.263821,14.631638,14.247723
0.746094,9.574261,11.060977,11.321555,11.306006,12.615690,14.380889,14.457993,14.113647
0.750000,9.619630,11.079423,11.255811,11.226774,12.752740,14.480593,14.213453,14.052690
0.753906,9.664991,11.122877,11.154135,11.150467,12.948967,14.527640,13.914947,14.099976
0.757812,9.731580,11.176726,11.004006,11.106295,13.196063,14.489735,13.597768,14.273601
0.761719,9.835407,11.217896,10.805726,11.123902,13.469397,14.346407,13.309219,14.568030
0.765625,9.983068,11.219989,10.573772,11.225919,13.731921,14.095506,13.098851,14.952956
0.769531,10.169462,11.159335,10.334983,11.421716,13.941255,13.755752,13.007586,15.378079
0.773438,10.377877,11.020705,10.123930,11.703804,14.058375,13.364606,13.058311,15.782791
0.777344,10.582460,10.801511,9.976376,12.047731,14.056019,12.971857,13.250218,16.108482
0.781250,10.752640,10.513594,9.922176,12.415581,13.924896,12.630272,13.558269,16.310552
0.785156,10.858664,10.182187,9.979068,12.762418,13.676310,12.385402,13.937984,16.367255
0.789062,10.877190,9.842218,10.148669,13.044333,13.340556,12.266818,14.334439,16.283272
0.792969,10.795889,9.532620,10.415522,13.226460,12.961427,12.282717,14.693395,16.087257
0.796875,10.616147,9.289745,10.749407,13.289255,12.587971,12.419112,14.971961,15.824029
0.800781,10.353342,9.141151,11.110499,13.231761,12.265319,12.643698,15.146347,15.543472
0.804688,10.034626,9.100955,11.456329,13.071186,12.026523,12.913477,15.214960,15.288922
0.808594,9.694607,9.167659,11.749158,12.838909,11.887176,13.184327,15.196262,15.087943
0.812500,9.369725,9.324844,11.962295,12.573814,11.843911,13.420293,15.122062,14.947725
0.816406,9.092356,9.544588,12.084105,12.314382,11.877004,13.600466,15.028028,14.856118
0.820312,8.885755,9.792909,12.118937,12.091243,11.956410,13.721928,14.943851,14.787844
0.824219,8.760735,10.036155,12.084859,11.921765,12.049764,13.798166,14.885533,14.714110
0.828125,8.714703,10.247070,12.008718,11.807796,12.130481,13.853471,14.851730,14.612957
0.832031,8.733174,10.409359,11.919625,11.736979,12.184058,13.914780,14.825025,14.477506
0.835938,8.793451,10.519856,11.842259,11.687263,12.211162,14.003019,14.777759,14.319838
0.839844,8.869715,10.587936,11.791429,11.633544,12.226781,14.126133,14.680900,14.169358
0.843750,8.938527,10.632301,11.769028,11.554898,12.255695,14.275553,14.513635,14.065995
0.847656,8.983669,10.675881,11.764030,11.440733,12.325336,14.427042,14.271196,14.049892
0.851562,8.999366,10.739895,11.755506,11.294453,12.457753,14.545771,13.968812,14.150258
0.855469,8.991288,10.838341,11.717989,11.133766,12.662585,14.594479,13.640666,14.376256
0.859375,8.975118,10.974060,11.628035,10.987510,12.932765,14.542788,13.333934,14.712374
0.863281,8.973003,11.137222,11.470542,10.889659,13.244017,14.375432,13.099231,15.119614
0.867188,9.008559,11.306559,11.243440,10.871813,13.558397,14.097422,12.979677,15.542357
0.871094,9.101449,11.453150,10.959710,10.955787,13.831157,13.734812,13.001184,15.919377
0.875000,9.262583,11.546003,10.646230,11.147976,14.019487,13.330789,13.166288,16.196392
0.878906,9.490916,11.558334,10.339621,11.436729,14.091201,12.937882,13.453033,16.337147
0.882812,9.772499,11.473271,10.079895,11.793400,14.031477,12.607988,13.819211,16.330393
0.886719,10.082002,11.287837,9.903178,12.176897,13.846134,12.382430,14.210985,16.191130
0.890625,10.386478,11.014381,9.834968,12.540826,13.560703,12.284271,14.573886,15.955894
0.894531,10.650660,10.679135,9.885320,12.841773,13.215505,12.314576,14.863619,15.673354
0.898438,10.842846,10.318149,10.046928,13.046988,12.857779,12.453408,15.054184,15.392629
0.902344,10.940247,9.971360,10.296497,13.139903,12.532596,12.665249,15.141482,15.152244
0.906250,10.932823,9.675939,10.599131,13.122353,12.274536,12.907531,15.141702,14.972450
0.910156,10.824870,9.460186,10.914841,13.013076,12.101903,13.140249,15.085025,14.852733
0.914062,10.634083,9.339149,11.205842,12.842890,12.014691,13.334415,15.006353,14.774958
0.917969,10.388276,9.312776,11.443166,12.647621,11.996654,13.477412,14.935445,14.711161
0.921875,10.120369,9.366946,11.611264,12.460346,12.020893,13.574059,14.888952,14.633792
0.925781,9.862618,9.477102,11.709703,12.304641,12.057586,13.643267,14.866363,14.525592
0.929688,9.641156,9.613744,11.751672,12.190276,12.082040,13.711177,14.850846,14.386393
0.933594,9.471862,9.748649,11.759683,12.112268,12.081150,13.802552,14.814728,14.234964
0.937500,9.358343,9.860561,11.759430,12.053422,12.056762,13.932591,14.728203,14.105303
0.941406,9.292339,9.939202,11.773169,11.989757,12.025152,14.101229,14.568994,14.038250
0.945312,9.256466,9.986819,11.814043,11.897525,12.012757,14.291392,14.330470,14.070552
0.949219,9.228704,10.016975,11.882599,11.760231,12.049135,14.471718,14.026054,14.224185
0.953125,9.187732,10.050857,11.966254,11.574016,12.158830,14.603181,13.688667,14.498761
0.957031,9.118046,10.111881,12.041838,11.350151,12.354051,14.648084,13.365195,14.869073
0.960938,9.013825,10.219728,12.080689,11.114005,12.629921,14.579334,13.107151,15.288574
0.964844,8.880787,10.385056,12.055229,10.900662,12.963480,14.387762,12.959727,15.698095
0.968750,8.735636,10.606005,11.945601,10.748066,13.316789,14.085721,12.951791,16.037797
0.972656,8.603186,10.867258,11.744962,10.689160,13.643523,13.706034,13.089232,16.259491
0.976562,8.511719,11.141889,11.462258,10.744713,13.897680,13.296420,13.353259,16.336398
0.980469,8.487429,11.395692,11.121847,10.918389,14.042518,12.910601,13.704085,16.268015
0.984375,8.549066,11.593161,10.759969,11.195167,14.057777,12.598055,14.089149,16.078979
0.988281,8.703786,11.703960,10.418754,11.543480,13.943590,12.394689,14.453953,15.812294
0.992188,8.945042,11.708608,10.138921,11.920675,13.720255,12.316506,14.752977,15.518694
0.996094,9.252950,11.602269,9.952647,12.280664,13.423912,12.357638,14.958149,15.244816
1.000000,9.597082,11.395876,9.878025,12.582185,13.099100,12.493101,15.062948,15.023140
1.003906,9.941207,11.114368,9.916220,12.795959,12.789835,12.685557,15.081309,14.866135
1.007812,10.249093,10.792372,10.051872,12.909268,12.531187,12.894419,15.041764,14.765948
1.011719,10.490313,10.468167,10.256638,12.927057,12.343165,13.085144,14.978400,14.699522
1.015625,10.644983,10.177101,10.495105,12.869385,12.228214,13.236539,14.920990,14.637640
1.019531,10.706556,9.945741,10.731857,12.765867,12.172783,13.344388,14.886793,14.555384
1.023438,10.682188,9.787867,10.938213,12.648373,12.152485,13.420639,14.876114,14.441132
1.027344,10.590627,9.703069,11.097276,12.543607,12.139581,13.488436,14.872708,14.301642
1.031250,10.458070,9.678167,11.206258,12.467229,12.110981,13.574293,14.848905,14.161776
1.035156,10.312797,9.691106,11.275679,12.420777,12.054846,13.699398,14.774132,14.058848
1.039062,10.179623,9.716504,11.325636,12.392069,11.974239,13.872227,14.624631,14.032984
1.042969,10.075252,9.731692,11.380025,12.358939,11.886928,14.084370,14.391851,14.115966
1.046875,10.005401,9.721984,11.459971,12.295459,11.821371,14.310647,14.087299,14.321468
1.050781,9.964251,9.684103,11.577925,12.179208,11.809781,14.513629,13.742491,14.639272
1.054688,9.936296,9.627051,11.733726,11.997927,11.879890,14.651545,13.403846,15.035101
1.058594,9.900215,9.570237,11.913512,11.754034,12.047307,14.687785,13.123609,15.456286
1.062500,9.833990,9.539245,12.091763,11.465904,12.310293,14.599762,12.948906,15.842023
1.066406,9.720235,9.560104,12.236075,11.165566,12.648222,14.385030,12.911477,16.135817
1.070312,9.550692,9.653232,12.313712,10.893217,13.024183,14.063174,13.020559,16.297135
1.074219,9.328965,9.828305,12.298558,10.689699,13.391231,13.672945,13.260595,16.309476
1.078125,9.070937,10.081125,12.177020,10.588487,13.701002,13.265217,13.594356,16.182956
1.082031,8.802738,10.393159,11.951622,10.608922,13.912823,12.893315,13.970741,15.950846
1.085938,8.556624,10.733903,11.641510,10.752115,14.001363,12.602853,14.335420,15.661006
1.089844,8.365517,11.065648,11.279706,11.000421,13.961162,12.423358,14.641831,15.364410
1.093750,8.257229,11.349755,10.907644,11.320607,13.807087,12.363507,14.859972,15.103632
1.097656,8.249457,11.553223,10.568047,11.670062,13.570636,12.410988,14.980987,14.904140
1.101562,8.346496,11.654302,10.297573,12.004735,13.292965,12.536901,15.016592,14.770473
1.105469,8.538305,11.646043,10.120705,12.287150,13.016190,12.703575,14.993654,14.688098
1.109375,8.802097,11.537131,10.046076,12.492821,12.774932,12.873909,14.945406,14.630288
1.113281,9.106168,11.349840,10.065942,12.613758,12.589932,13.019985,14.901582,14.568043
1.117188,9.415254,11.115541,10.158853,12.658384,12.465141,13.128951,14.880018,14.480336
1.121094,9.696404,10.868664,10.294916,12.647983,12.388821,13.204806,14.881819,14.361878
1.125000,9.924291,10.640312,10.442515,12.610523,12.338322,13.265751,14.891337,14.226256
1.128906,10.084966,10.452787,10.575054,12.573286,12.287333,13.337818,14.880922,14.103551
1.132812,10.177382,10.316091,10.676319,12.555971,12.213837,13.446404,14.819252,14.032945
1.136719,10.212452,10.227074,10.743336,12.565820,12.106882,13.607844,14.681074,14.052198
1.140625,10.209835,10.171331,10.786159,12.595857,11.970514,13.823150,14.455863,14.186719
1.144531,10.193151,10.127435,10.824660,12.626636,11.823925,14.075524,14.153110,14.441086
1.148438,10.184545,10.072588,10.883056,12.631101,11.697701,14.332375,13.802777,14.795326
1.152344,10.199701,9.988511,10.983370,12.581476,11.627014,14.551462,13.450642,15.207056
1.156250,10.244287,9.866320,11.139256,12.456622,11.643280,14.689808,13.149508,15.619142
1.160156,10.312530,9.709385,11.351566,12.248206,11.766198,14.713337,12.948281,15.971128
1.164062,10.388212,9.533521,11.606637,11.964252,11.998033,14.604986,12.881484,16.211718
1.167969,10.447894,9.364472,11.877745,11.629223,12.321485,14.369381,12.961676,16.309330
1.171875,10.465756,9.233137,12.129477,11.280510,12.701737,14.032927,13.176593,16.258191
1.175781,10.419102,9.169491,12.324159,10.962026,13.092295,13.639222,13.491690,16.078543
1.179688,10.293447,9.196415,12.429047,10.716201,13.443425,13.240794,13.857498,15.811004
1.183594,10.086197,9.324677,12.422803,10.576043,13.711365,12.888990,14.220050,15.506535
1.187500,9.808166,9.550088,12.299921,10.558947,13.866340,12.624272,14.531926,15.214560
1.191406,9.482608,9.853434,12.072182,10.663539,13.897667,12.469080,14.761342,14.972205
1.195312,9.141902,10.203230,11.766805,10.870212,13.814869,12.424800,14.897199,14.797254
1.199219,8.822485,10.560800,11.421679,11.145234,13.644617,12.473440,14.949037,14.686487
1.203125,8.558965,10.886705,11.078606,11.447534,13.424252,12.583485,14.942052,14.619618
1.207031,8.378496,11.147291,10.775925,11.736716,13.193361,12.718467,14.908586,14.567634
1.210938,8.296456,11.320108,10.542007,11.980602,12.985337,12.846165,14.878298,14.503195
1.214844,8.314229,11.397147,10.390893,12.160717,12.820792,12.946221,14.869565,14.410250
1.218750,8.419487,11.385332,10.320935,12.274601,12.704276,13.014378,14.884284,14.290251
1.222656,8.588890,11.304178,10.316642,12.334529,12.624975,13.062368,14.907416,14.163219
1.226562,8.792682,11.181159,10.353275,12.362998,12.561124,13.113542,14.911361,14.063328
1.230469,9.000293,11.045721,10.403180,12.386066,12.487043,13.195372,14.864063,14.030061
1.234375,9.185872,10.923165,10.442467,12.426077,12.381088,13.330691,14.738771,14.097213
1.238281,9.332704,10.829650,10.456611,12.495433,12.232585,13.529891,14.522938,14.282612
1.242188,9.435690,10.769290,10.443767,12.592839,12.046084,13.786042,14.223940,14.581271
1.246094,9.501427,10.733941,10.415091,12.702901,11.841859,14.074229,13.870040,14.963886
1.250000,9.545922,10.705664,10.392017,12.799181,11.652464,14.355401,13.506202,15.381236
1.253906,9.590414,10.661370,10.401062,12.850068,11.516065,14.583924,13.185601,15.773557
1.257812,9.656140,10.578635,10.467282,12.826182,11.468017,14.717166,12.958767,16.082725
1.261719,9.759109,10.441508,10.607801,12.707666,11.532600,14.724905,12.862896,16.264322
1.265625,9.905918,10.245054,10.826811,12.489736,11.716784,14.596388,12.913837,16.296707
1.269531,10.091466,9.997697,11.113159,12.185213,12.007490,14.343363,13.102657,16.184908
1.273438,10.299040,9.720816,11.441098,11.823431,12.373026,13.998356,13.397610,15.958463
1.277344,10.502788,9.445635,11.774111,11.445641,12.768454,13.608531,13.751026,15.663813
1.281250,10.672140,9.207965,12.071081,11.097865,13.143757,13.226497,14.109488,15.353186
1.285156,10.777340,9.041830,12.293586,10.822635,13.453086,12.900117,14.424901,15.072777
1.289062,10.795049,8.973204,12.412849,10.651345,13.663060,12.663615,14.663850,14.853110
1.292969,10.712938,9.015104,12.414941,10.598804,13.758388,12.531918,14.813097,14.703934
1.296875,10.532391,9.165001,12.303184,10.661104,13.743611,12.499459,14.880050,14.614755
1.300781,10.268787,9.405074,12.097276,10.817216,13.640673,12.543566,14.888239,14.560677
1.304688,9.949279,9.705261,11.829327,11.033930,13.482944,12.631538,14.869087,14.511862
1.308594,9.608474,10.028523,11.537633,11.273041,13.307105,12.729624,14.852143,14.443984
1.312500,9.282812,10.337292,11.259460,11.499228,13.144765,12.811725,14.856296,14.346831
1.316406,9.004670,10.599854,11.024321,11.686910,13.015714,12.865716,14.884235,14.228706
1.320312,8.797302,10.795437,10.849093,11.824656,12.924325,12.895881,14.921544,14.115372
1.324219,8.671522,10.917033,10.735948,11.916207,12.859874,12.920922,14.940704,14.043771
1.328125,8.624736,10.971444,10.673450,11.978000,12.800626,12.968062,14.908952,14.052060
1.332031,8.642460,10.976608,10.640538,12.033781,12.720689,13.064716,14.798041,14.168581
1.335938,8.701997,10.956784,10.612467,12.107594,12.597966,13.229812,14.593362,14.402628
1.339844,8.777527,10.936623,10.567413,12.216746,12.421289,13.466926,14.300082,14.739522
1.343750,8.845612,10.935346,10.492284,12.366385,12.195017,13.761011,13.944625,15.141403
1.347656,8.890034,10.962255,10.386475,12.546949,11.939924,14.079598,13.570960,15.553733
1.351562,8.905018,11.014471,10.262723,12.735103,11.690101,14.378352,13.232448,15.916063
1.355469,8.896233,11.077406,10.144861,12.898028,11.486464,14.609770,12.981078,16.174518
1.359375,8.879365,11.127845,10.062916,13.000167,11.368298,14.733075,12.856598,16.293006
1.363281,8.876557,11.139040,10.046579,13.010962,11.364693,14.723049,12.878094,16.260470
1.367188,8.911429,11.086757,10.118409,12.911919,11.487815,14.575752,13.039994,16.092446
1.371094,9.003641,10.955051,10.288240,12.701417,11.729531,14.309808,13.313452,15.826622
1.375000,9.164104,10.740555,10.549983,12.396195,12.062194,13.962914,13.652749,15.513561
1.378906,9.391774,10.454400,10.881558,12.029126,12.443471,13.584364,14.005207,15.204928
1.382812,9.672701,10.121301,11.248011,11.643692,12.824179,13.225256,14.322237,14.942154
1.386719,9.981556,9.775965,11.607262,11.286295,13.157463,12.928597,14.568943,14.748302
1.390625,10.285391,9.457463,11.917321,10.997978,13.407325,12.721526,14.730058,14.625059
1.394531,10.548939,9.202655,12.143555,10.807279,13.554682,12.611337,14.810912,14.555422
1.398438,10.740498,9.039915,12.264557,10.725691,13.599698,12.586121,14.833379,14.511201
1.402344,10.837281,8.984389,12.275429,10.746618,13.559952,12.619731,14.827941,14.463209
1.406250,10.829246,9.035676,12.187873,10.848008,13.464969,12.679783,14.824006,14.391345
1.410156,10.720689,9.178391,12.027103,10.998005,13.348422,12.736679,14.840959,14.291836
1.414062,10.529307,9.385444,11.826242,11.162368,13.239834,12.771478,14.882275,14.179637
1.417969,10.282912,9.623410,11.619414,11.311995,13.157711,12.780667,14.934189,14.085300
1.421875,10.014424,9.858875,11.434952,11.428933,13.105653,12.776720,14.969294,14.047047
1.425781,9.756102,10.064535,11.290140,11.509559,13.072329,12.784303,14.954158,14.100099
1.429688,9.534074,10.223823,11.188562,11.564285,13.035262,12.833098,14.859043,14.266020
1.433594,9.364225,10.333197,11.120549,11.613909,12.967519,12.948983,14.667245,14.544922
1.437500,9.250157,10.401645,11.066601,11.683457,12.845686,13.145787,14.381638,14.912656
1.441406,9.183612,10.447588,11.002988,11.794963,12.657230,13.419668,14.026666,15.323896
1.445312,9.147206,10.493827,10.908294,11.960827,12.405468,13.747581,13.645128,15.720526
1.449219,9.118919,10.561627,10.769465,12.179300,12.110891,14.090343,13.290380,16.043394
1.453125,9.077431,10.665165,10.586022,12.433164,11.808451,14.399698,13.015690,16.244653
1.457031,9.007237,10.807515,10.371494,12.691987,11.541311,14.627841,12.863229,16.297698
1.460938,8.902516,10.979031,10.151709,12.917519,11.352387,14.737265,12.855254,16.202338
1.464844,8.768986,11.158477,9.960246,13.071132,11.275539,14.708677,12.989570,15.983962
1.468750,8.623350,11.316726,9.831966,13.121711,11.328355,14.545173,13.240314,15.687000
1.472656,8.490426,11.422309,9.795947,13.052316,11.508144,14.271710,13.563870,15.364324
1.476562,8.398491,11.447703,9.869295,12.864152,11.792047,13.929985,13.908471,15.065261
1.480469,8.373742,11.375106,10.053118,12.576986,12.141264,13.569883,14.225214,14.825167
1.484375,8.434929,11.200532,10.331539,12.225870,12.508495,13.239450,14.477881,14.659087
1.488281,8.589207,10.935376,10.673988,11.854849,12.846979,12.975645,14.649283,14.560940
1.492188,8.830030,10.605113,11.040323,11.508944,13.119156,12.797949,14.742737,14.508235
1.496094,9.137512,10.245336,11.387797,11.226095,13.303107,12.706198,14.778472,14.470918
1.500000,9.481228,9.895896,11.678442,11.030724,13.395409,12.683017,14.786022,14.421875
1.503906,9.824945,9.594255,11.885432,10.930226,13.409873,12.700145,14.794626,14.346248
1.507812,10.132432,9.369330,11.997143,10.915087,13.372562,12.727020,14.824147,14.247013
1.511719,10.373261,9.237009,12.018132,10.962487,13.314309,12.739509,14.878853,14.145285
1.515625,10.527549,9.198178,11.966912,11.042555,13.262530,12.726612,14.945656,14.075208
1.519531,10.588748,9.239612,11.871032,11.125828,13.234240,12.693513,14.997305,14.074717
1.523438,10.564015,9.337495,11.760537,11.190260,13.231904,12.660229,14.999736,14.174544
1.527344,10.472098,9.462837,11.661227,11.226208,13.243084,12.656186,14.921740,14.388385
1.531250,10.339194,9.587671,11.589129,11.238313,13.243939,12.712028,14.744489,14.706843
1.535156,10.193582,9.690773,11.547351,11.243865,13.205762,12.850693,14.468487,15.096874
1.539062,10.060079,9.761747,11.525968,11.268049,13.102997,13.079923,14.116062,15.507065
1.542969,9.955387,9.802672,11.504940,11.337151,12.920853,13.388130,13.728669,15.877596
1.546875,9.885224,9.826998,11.459407,11.471268,12.660666,13.744702,13.359462,16.152573
1.550781,9.843771,9.855932,11.366209,11.678194,12.341720,14.104822,13.062807,16.291755
1.554688,9.815521,9.913087,11.210211,11.949894,11.998962,14.417804,12.883152,16.278861
1.558594,9.779155,10.018509,10.989029,12.262426,11.677056,14.637102,12.845849,16.124468
1.562500,9.712653,10.183331,10.715115,12.579421,11.421988,14.729735,12.952076,15.862839
1.566406,9.598631,10.406185,10.414677,12.858441,11.272062,14.683004,13.179031,15.543520
1.570312,9.428829,10.672137,10.123605,13.058915,11.250236,14.506961,13.485331,15.219835
1.574219,9.206853,10.954436,9.881182,13.149980,11.359494,14.232088,13.820293,14.937122
1.578125,8.948584,11.218753,9.722835,13.116571,11.582262,13.902728,14.134877,14.723614
1.582031,8.680153,11.429123,9.673418,12.962465,11.884017,13.567781,14.391698,14.586109
1.585938,8.433817,11.554443,9.742380,12.709621,12.220261,13.270801,14.571760,14.511355
1.589844,8.242497,11.574230,9.921818,12.393958,12.545348,13.041727,14.676435,14.472597
1.593750,8.134005,11.482528,10.187833,12.058465,12.821212,12.892108,14.724331,14.439396
1.597656,8.126037,11.289181,10.504897,11.745089,13.024113,12.814791,14.744020,14.388034
1.601562,8.222890,11.018207,10.832366,11.487119,13.147955,12.788034,14.764557,14.309672
1.605469,8.414522,10.703590,11.131807,11.303643,13.203554,12.782912,14.806274,14.214042
1.609375,8.678146,10.383317,11.373665,11.197207,13.214109,12.772160,14.874236,14.127638
1.613281,8.982058,10.092798,11.541934,11.155094,13.208038,12.738227,14.956066,14.086828
1.617188,9.290995,9.858968,11.635929,11.153853,13.210887,12.678565,15.024717,14.127643
1.621094,9.572005,9.696190,11.668853,11.166011,13.238248,12.606831,15.045541,14.274920
1.625000,9.799761,9.604727,11.663539,11.167417,13.291355,12.549685,14.985879,14.533662
1.628906,9.960313,9.572041,11.646314,11.143560,13.356404,12.539935,14.824768,14.884987
1.632812,10.052617,9.576587,11.640343,11.093422,13.407774,12.607689,14.560263,15.287863
1.636719,10.087583,9.593308,11.659888,11.029998,13.414419,12.771657,14.212454,15.686398
1.640625,10.084872,9.599657,11.706727,10.977363,13.347930,13.032755,13.821274,16.021036
1.644531,10.068103,9.580918,11.769511,10.964908,13.190414,13.371624,13.439478,16.240996
1.648438,10.059420,9.533712,11.826199,11.020050,12.940291,13.750791,13.122341,16.314963
1.652344,10.074509,9.466964,11.849069,11.161038,12.614636,14.121095,12.916434,16.237460
1.656250,10.119038,9.400132,11.811230,11.391479,12.247397,14.430990,12.850112,16.029375
1.660156,10.187234,9.359043,11.693242,11.697864,11.883805,14.636670,12.927909,15.732564
1.664062,10.262876,9.370191,11.488424,12.050698,11.572128,14.710744,13.130144,15.399916
1.667969,10.322528,9.454649,11.205664,12.409097,11.354523,14.647492,13.417792,15.083367
1.671875,10.340370,9.622865,10.869099,12.727920,11.258979,14.463544,13.741416,14.822809
1.675781,10.293704,9.871416,10.514651,12.965989,11.294100,14.193859,14.052013,14.638595
1.679688,10.168047,10.182416,10.184073,13.093665,11.447835,13.883947,14.311183,14.529375
1.683594,9.960805,10.525761,9.917679,13.098214,11.690432,13.580164,14.498246,14.475601
1.687500,9.682791,10.863809,9.747219,12.985832,11.980916,13.320285,14.612696,14.447625
1.691406,9.357259,11.157612,9.690321,12.779941,12.275636,13.126526,14.671551,14.416099
1.695312,9.016587,11.373516,9.747615,12.516130,12.536994,13.002526,14.702421,14.361857
1.699219,8.697214,11.488846,9.903108,12.234850,12.740424,12.934887,14.734159,14.282582
1.703125,8.433748,11.495578,10.127708,11.973429,12.878121,12.898773,14.787556,14.194466
1.707031,8.253342,11.401317,10.385146,11.759111,12.958779,12.866101,14.868494,14.128351
1.710938,8.171374,11.227385,10.639069,11.604572,13.003500,12.814258,14.965341,14.121319
1.714844,8.189229,11.004443,10.859848,11.506830,13.038909,12.733172,15.051307,14.205925
1.718750,8.294577,10.766512,11.029698,11.449689,13.089166,12.628964,15.091212,14.399887
1.722656,8.464079,10.544593,11.145108,11.409109,13.168769,12.523242,15.050986,14.699007
1.726562,8.667980,10.361144,11.216114,11.360238,13.277890,12.448174,14.907517,15.075284
1.730469,8.875709,10.226494,11.262640,11.284480,13.401369,12.438480,14.656353,15.480910
1.734375,9.061415,10.137874,11.308754,11.174983,13.511644,12.522265,14.315218,15.857312
1.738281,9.208384,10.081213,11.376084,11.039276,13.574980,12.712912,13.922355,16.147169
1.742188,9.311516,10.035284,11.477877,10.898430,13.559588,13.004035,13.529924,16.306502
1.746094,9.377407,9.977321,11.614979,10.782878,13.443759,13.368782,13.193906,16.313943
1.750000,9.422066,9.888913,11.774648,10.725791,13.222132,13.763792,12.962836,16.174928
1.753906,9.466731,9.760953,11.932491,10.755451,12.908581,14.137002,12.867967,15.919843
1.757812,9.532640,9.596575,12.057153,10.888310,12.535000,14.437588,12.917157,15.596616
1.761719,9.635800,9.411467,12.116797,11.124267,12.146142,14.625849,13.093893,15.259619
1.765625,9.782809,9.231443,12.086015,11.445275,11.791582,14.680798,13.361620,14.957653
1.769531,9.968567,9.087733,11.951734,11.817631,11.516514,14.603786,13.672301,14.723937
1.773438,10.176359,9.010921,11.716824,12.197534,11.353365,14.417364,13.977136,14.570514
1.777344,10.380335,9.024734,11.400645,12.538801,11.316020,14.159715,14.236868,14.488299
1.781250,10.549924,9.140931,11.036345,12.801126,11.397898,13.875971,14.429251,14.452559
1.785156,10.655370,9.356332,10.665417,12.957193,11.574246,13.608454,14.551978,14.432221
1.789062,10.673333,9.652608,10.330598,12.997159,11.808082,13.388088,14.620510,14.400433
1.792969,10.591486,9.998912,10.068508,12.929611,12.058428,13.228940,14.661495,14.343518
1.796875,10.411211,10.356864,9.903503,12.778840,12.288973,13.127065,14.703579,14.265897
1.800781,10.147889,10.686942,9.843960,12.579075,12.475227,13.063806,14.768010,14.189632
1.804688,9.828671,10.955049,9.881712,12.366955,12.608601,13.012638,14.861498,14.148660
1.808594,9.488166,11.138007,9.994688,12.173876,12.696580,12.947801,14.973199,14.179206
1.812500,9.162812,11.226915,10.152167,12.019877,12.759017,12.852539,15.076642,14.308863
1.816406,8.884987,11.227772,10.321528,11.910353,12.821521,12.724893,15.136178,14.547256
1.820312,8.677945,11.159267,10.475049,11.836263,12.907533,12.579559,15.116362,14.880804
1.824219,8.552500,11.048241,10.595358,11.777715,13.031016,12.445301,14.991940,15.273104
1.828125,8.506057,10.923752,10.678391,11.710072,13.191512,12.358479,14.755893,15.671045
1.832031,8.524134,10.810963,10.733280,11.611162,13.372781,12.354203,14.423469,16.015287
1.835938,8.584032,10.726077,10.779240,11.467921,13.545426,12.457211,14.031051,16.252656
1.839844,8.659931,10.673361,10.840149,11.280941,13.672939,12.674681,13.630004,16.347441
1.843750,8.728395,10.644813,10.938032,11.065847,13.719850,12.992741,13.276819,16.288895
1.847656,8.773204,10.622545,11.086874,10.851124,13.660123,13.377618,13.021817,16.093107
1.851562,8.788584,10.583351,11.288122,10.672813,13.483887,13.781259,12.899031,15.798833
1.855469,8.780203,10.504516,11.528907,10.567180,13.200917,14.150243,12.919602,15.458359
1.859375,8.763748,10.369645,11.783399,10.562939,12.840020,14.436014,13.070217,15.125663
1.863281,8.761361,10.173296,12.017098,10.674714,12.444372,14.604153,13.316888,14.844818
1.867188,8.796663,9.923423,12.193197,10.899178,12.063781,14.640629,13.613123,14.641424
1.871094,8.889313,9.641099,12.279725,11.214741,11.745494,14.553650,13.910489,14.519111
1.875000,9.050224,9.357498,12.256018,11.584917,11.525553,14.370776,14.169024,14.461773
1.878906,9.278349,9.108705,12.117148,11.964688,11.422538,14.132014,14.365038,14.440788
1.882812,9.559739,8.929349,11.875410,12.308564,11.435006,13.880554,14.494504,14.425156
1.886719,9.869066,8.846296,11.558500,12.578669,11.543144,13.653331,14.571361,14.391794
1.890625,10.173381,8.873636,11.204768,12.751173,11.714164,13.473586,14.621306,14.333208
1.894531,10.437417,9.009966,10.856455,12.819768,11.910187,13.347117,14.672768,14.260463
1.898438,10.629473,9.238496,10.552306,12.795503,12.096795,13.263005,14.747453,14.200625
1.902344,10.726761,9.529970,10.321011,12.703099,12.250309,13.198519,14.852923,14.189320
1.906250,10.719239,9.847837,10.176786,12.574608,12.362183,13.126927,14.979167,14.260324
1.910156,10.611203,10.154662,10.117957,12.441838,12.439548,13.026197,15.100097,14.434945
1.914062,10.420351,10.418524,10.128747,12.329237,12.501875,12.886429,15.179663,14.714025
1.917969,10.174492,10.618181,10.183858,12.248784,12.574598,12.714124,15.181099,15.074767
1.921875,9.906550,10.745994,10.254803,12.197996,12.681244,12.532157,15.077016,15.473398
1.925781,9.648781,10.808107,10.316634,12.161454,12.835978,12.375404,14.857788,15.853192
1.929688,9.427315,10.821880,10.353621,12.115467,13.038356,12.282974,14.536075,16.156010
1.933594,9.258034,10.811157,10.362666,12.034794,13.271591,12.288853,14.146240,16.334603
1.937500,9.144543,10.800371,10.353739,11.899879,13.504827,12.413203,13.738654,16.362719
1.941406,9.078583,10.808709,10.347258,11.702942,13.698972,12.656371,13.370113,16.240545
1.945312,9.042769,10.845553,10.368969,11.451502,13.814843,12.997125,13.092543,15.994194
1.949219,9.015082,10.908129,10.443456,11.168481,13.821808,13.395611,12.942627,15.669391
1.953125,8.974202,10.981874,10.587675,10.888774,13.704969,13.800458,12.934733,15.320943
1.957031,8.904623,11.043434,10.805931,10.652965,13.469255,14.158481,13.058762,15.000609
1.960938,8.800525,11.065705,11.087409,10.499479,13.139456,14.424831,13.283383,14.746347
1.964844,8.667626,11.023883,11.406855,10.456848,12.756115,14.571333,13.563783,14.575506
1.968750,8.522628,10.901287,11.728332,10.537738,12.368154,14.591166,13.852053,14.483524
1.972656,8.390349,10.693751,12.011331,10.736019,12.023793,14.498898,14.107675,14.448256
1.976562,8.299067,10.411662,12.218033,11.027543,11.761715,14.325963,14.305639,14.438615
1.980469,8.274978,10.079179,12.320248,11.374471,11.604391,14.112685,14.440278,14.425142
1.984375,8.336833,9.730748,12.304625,11.732261,11.554939,13.898804,14.524052,14.389616
1.988281,8.491785,9.405541,12.175085,12.057854,11.598155,13.714698,14.581717,14.331136
1.992188,8.733290,9.140883,11.951969,12.317345,11.705362,13.575366,14.641485,14.267015
1.996094,9.041461,8.965937,11.668090,12.491555,11.841934,13.478519,14.725523,14.228223
